 Output of condall.f V.22.05.99: Lg(th.conduct.) vs lg(T)[1st row] and lg(rho)[1st col.] The corner is Zion. Multipart table (various Zion)
   1.00   3.000  3.333  3.667  4.000  4.333  4.667  5.000  5.333  5.667  6.000  6.333  6.667  7.000  7.333  7.667  8.000  8.333  8.667  9.000
  -6.00   3.040  3.752  4.491  5.247  6.013  6.788  7.570  8.356  9.147  9.942 10.739 11.539 12.340 13.141 13.940 14.733 15.513 16.273 17.006
  -5.75   3.096  3.794  4.525  5.275  6.037  6.809  7.588  8.373  9.163  9.956 10.752 11.551 12.351 13.151 13.950 14.742 15.523 16.283 17.017
  -5.50   3.161  3.841  4.561  5.305  6.063  6.832  7.608  8.391  9.179  9.970 10.765 11.563 12.362 13.162 13.960 14.752 15.532 16.292 17.027
  -5.25   3.238  3.893  4.600  5.337  6.090  6.855  7.629  8.409  9.195  9.985 10.779 11.576 12.374 13.173 13.971 14.762 15.542 16.302 17.037
  -5.00   3.328  3.952  4.644  5.371  6.119  6.880  7.650  8.428  9.212 10.001 10.794 11.589 12.387 13.185 13.981 14.772 15.551 16.311 17.046
  -4.75   3.437  4.020  4.692  5.408  6.149  6.906  7.673  8.448  9.230 10.017 10.808 11.603 12.399 13.196 13.992 14.782 15.561 16.321 17.056
  -4.50   3.568  4.101  4.746  5.449  6.182  6.933  7.697  8.469  9.249 10.034 10.824 11.617 12.412 13.208 14.003 14.793 15.571 16.330 17.065
  -4.25   3.723  4.197  4.808  5.494  6.217  6.962  7.722  8.491  9.268 10.052 10.840 11.631 12.425 13.221 14.015 14.804 15.581 16.340 17.074
  -4.00   3.901  4.311  4.880  5.544  6.255  6.994  7.748  8.514  9.289 10.070 10.856 11.646 12.439 13.233 14.027 14.815 15.592 16.350 17.084
  -3.75   4.099  4.447  4.965  5.600  6.297  7.027  7.776  8.538  9.310 10.089 10.873 11.662 12.453 13.246 14.039 14.826 15.602 16.360 17.093
  -3.50   4.314  4.605  5.066  5.665  6.344  7.063  7.806  8.564  9.332 10.108 10.891 11.678 12.468 13.260 14.051 14.838 15.613 16.370 17.103
  -3.25   4.543  4.782  5.186  5.741  6.395  7.102  7.838  8.591  9.356 10.129 10.909 11.694 12.483 13.274 14.064 14.850 15.624 16.380 17.113
  -3.00   4.783  4.975  5.325  5.831  6.454  7.146  7.872  8.619  9.380 10.151 10.928 11.711 12.499 13.288 14.077 14.862 15.636 16.391 17.123
  -2.75   5.031  5.183  5.484  5.936  6.523  7.193  7.909  8.650  9.406 10.173 10.948 11.729 12.515 13.303 14.091 14.875 15.648 16.402 17.133
  -2.50   5.275  5.403  5.658  6.060  6.603  7.247  7.949  8.682  9.433 10.197 10.969 11.748 12.532 13.318 14.105 14.888 15.660 16.413 17.144
  -2.25   5.503  5.631  5.848  6.202  6.697  7.309  7.994  8.717  9.462 10.222 10.991 11.767 12.549 13.334 14.119 14.901 15.672 16.425 17.155
  -2.00   5.717  5.857  6.052  6.361  6.807  7.381  8.043  8.755  9.493 10.248 11.014 11.788 12.567 13.350 14.134 14.915 15.685 16.437 17.166
  -1.75   5.931  6.074  6.266  6.535  6.934  7.465  8.099  8.796  9.526 10.275 11.038 11.809 12.586 13.367 14.150 14.929 15.698 16.449 17.177
  -1.50   6.155  6.284  6.482  6.726  7.079  7.563  8.164  8.842  9.561 10.305 11.063 11.831 12.606 13.385 14.166 14.944 15.712 16.462 17.189
  -1.25   6.393  6.497  6.694  6.931  7.241  7.678  8.239  8.893  9.600 10.336 11.089 11.854 12.626 13.403 14.183 14.959 15.726 16.475 17.201
  -1.00   6.648  6.721  6.904  7.143  7.422  7.810  8.328  8.951  9.642 10.369 11.117 11.878 12.648 13.423 14.200 14.975 15.740 16.488 17.213
  -0.75   6.925  6.958  7.119  7.357  7.621  7.961  8.431  9.019  9.689 10.405 11.147 11.903 12.670 13.442 14.218 14.991 15.755 16.502 17.226
  -0.50   7.228  7.211  7.343  7.572  7.834  8.134  8.552  9.099  9.742 10.444 11.178 11.930 12.693 13.463 14.236 15.008 15.770 16.516 17.239
  -0.25   7.558  7.484  7.578  7.791  8.053  8.329  8.693  9.193  9.804 10.488 11.212 11.958 12.717 13.485 14.256 15.025 15.786 16.531 17.253
   0.00   7.915  7.781  7.828  8.018  8.276  8.544  8.859  9.304  9.876 10.536 11.248 11.988 12.743 13.507 14.276 15.043 15.803 16.546 17.267
   0.25   8.295  8.104  8.094  8.253  8.503  8.771  9.051  9.436  9.961 10.592 11.288 12.020 12.770 13.530 14.296 15.062 15.820 16.562 17.281
   0.50   8.695  8.456  8.381  8.499  8.735  9.005  9.268  9.594 10.063 10.657 11.333 12.054 12.798 13.555 14.318 15.082 15.838 16.578 17.296
   0.75   9.109  8.834  8.693  8.757  8.972  9.241  9.502  9.783 10.186 10.735 11.384 12.091 12.828 13.580 14.341 15.102 15.856 16.595 17.311
   1.00   9.535  9.234  9.033  9.033  9.217  9.481  9.745 10.001 10.338 10.828 11.443 12.131 12.859 13.607 14.364 15.123 15.875 16.612 17.327
   1.25   9.968  9.651  9.402  9.330  9.471  9.723  9.993 10.240 10.522 10.944 11.513 12.178 12.894 13.635 14.389 15.145 15.895 16.630 17.344
   1.50  10.407 10.081  9.797  9.654  9.737  9.970 10.242 10.492 10.739 11.089 11.600 12.232 12.931 13.665 14.414 15.168 15.916 16.649 17.361
   1.75  10.851 10.520 10.213 10.007 10.020 10.223 10.492 10.749 10.981 11.268 11.708 12.296 12.974 13.697 14.441 15.191 15.937 16.669 17.379
   2.00  11.300 10.966 10.645 10.390 10.325 10.483 10.744 11.008 11.239 11.482 11.846 12.376 13.023 13.732 14.469 15.216 15.959 16.689 17.397
   2.25  11.752 11.417 11.088 10.798 10.658 10.755 10.998 11.267 11.504 11.725 12.019 12.478 13.082 13.771 14.499 15.241 15.982 16.710 17.416
   2.50  12.208 11.872 11.539 11.226 11.021 11.044 11.256 11.526 11.773 11.985 12.229 12.609 13.156 13.816 14.531 15.268 16.006 16.732 17.436
   2.75  12.667 12.331 11.995 11.670 11.413 11.356 11.522 11.784 12.041 12.256 12.469 12.775 13.251 13.870 14.567 15.296 16.030 16.754 17.457
   3.00  13.128 12.793 12.456 12.123 11.831 11.697 11.799 12.044 12.307 12.532 12.730 12.980 13.375 13.938 14.608 15.326 16.056 16.778 17.479
   3.25  13.593 13.257 12.920 12.584 12.268 12.068 12.095 12.307 12.572 12.807 13.003 13.215 13.535 14.027 14.658 15.359 16.083 16.802 17.501
   3.50  14.059 13.724 13.387 13.049 12.720 12.468 12.414 12.577 12.835 13.081 13.283 13.472 13.732 14.144 14.720 15.396 16.111 16.827 17.524
   3.75  14.528 14.193 13.857 13.518 13.182 12.892 12.763 12.859 13.098 13.352 13.564 13.744 13.960 14.296 14.802 15.442 16.142 16.854 17.549
   4.00  14.999 14.664 14.328 13.990 13.650 13.335 13.142 13.161 13.363 13.619 13.843 14.023 14.211 14.484 14.912 15.499 16.177 16.881 17.574
   4.25  15.436 15.102 14.766 14.427 14.086 13.792 13.548 13.489 13.636 13.884 14.118 14.305 14.475 14.702 15.054 15.574 16.218 16.911 17.601
   4.50  15.944 15.580 15.244 14.907 14.565 14.222 13.976 13.846 13.922 14.147 14.388 14.586 14.748 14.940 15.230 15.675 16.270 16.944 17.629
   4.75  16.418 16.058 15.722 15.385 15.045 14.700 14.420 14.231 14.229 14.411 14.653 14.862 15.024 15.192 15.434 15.805 16.338 16.983 17.658
   5.00  16.892 16.534 16.199 15.863 15.523 15.178 14.876 14.639 14.562 14.682 14.912 15.130 15.299 15.449 15.654 15.966 16.428 17.030 17.691
   5.25  17.363 17.008 16.673 16.337 15.998 15.654 15.304 15.065 14.924 14.967 15.167 15.390 15.567 15.709 15.883 16.148 16.544 17.091 17.728
   5.50  17.831 17.496 17.143 16.807 16.469 16.126 15.776 15.502 15.308 15.272 15.420 15.640 15.826 15.965 16.116 16.344 16.683 17.169 17.772
   5.75  18.293 17.959 17.606 17.271 16.934 16.592 16.242 15.943 15.710 15.603 15.678 15.879 16.072 16.213 16.346 16.544 16.841 17.267 17.826
   6.00  18.747 18.413 18.062 17.727 17.390 17.049 16.701 16.343 16.121 15.956 15.948 16.109 16.304 16.451 16.572 16.743 17.007 17.384 17.893
   6.25  19.192 18.859 18.507 18.173 17.836 17.496 17.150 16.793 16.535 16.328 16.240 16.335 16.521 16.674 16.791 16.941 17.177 17.515 17.974
   6.50  19.627 19.293 18.959 18.608 18.272 17.933 17.588 17.233 16.947 16.710 16.555 16.565 16.724 16.883 17.000 17.134 17.347 17.655 18.068
   6.75  20.051 19.717 19.383 19.032 18.697 18.359 18.015 17.662 17.355 17.095 16.892 16.813 16.918 17.077 17.198 17.322 17.515 17.798 18.174
   7.00  20.466 20.132 19.798 19.447 19.112 18.775 18.433 18.082 17.715 17.481 17.247 17.087 17.112 17.258 17.385 17.504 17.681 17.943 18.289
   7.25  20.873 20.540 20.206 19.855 19.520 19.183 18.843 18.495 18.131 17.866 17.612 17.392 17.320 17.428 17.561 17.680 17.845 18.089 18.410
   7.50  21.276 20.943 20.609 20.274 19.923 19.587 19.248 18.902 18.543 18.252 17.985 17.727 17.559 17.597 17.728 17.849 18.005 18.234 18.535
   7.75  21.676 21.343 21.009 20.675 20.324 19.988 19.650 19.306 18.951 18.641 18.361 18.084 17.838 17.777 17.886 18.012 18.162 18.378 18.662
   8.00  22.076 21.742 21.409 21.075 20.724 20.389 20.052 19.710 19.358 18.988 18.742 18.457 18.159 17.989 18.042 18.169 18.316 18.521 18.790
   8.25  22.476 22.143 21.809 21.475 21.125 20.790 20.454 20.114 19.766 19.402 19.128 18.840 18.516 18.246 18.205 18.320 18.466 18.662 18.918
   8.50  22.877 22.544 22.210 21.876 21.542 21.193 20.857 20.518 20.173 19.815 19.518 19.228 18.898 18.556 18.395 18.469 18.613 18.802 19.046
   8.75  23.277 22.944 22.610 22.277 21.943 21.594 21.259 20.921 20.579 20.227 19.913 19.618 19.294 18.914 18.632 18.622 18.757 18.940 19.174
   9.00  23.673 23.339 23.006 22.672 22.338 21.992 21.657 21.321 20.981 20.634 20.271 20.006 19.692 19.306 18.929 18.795 18.900 19.077 19.301
   9.25  24.059 23.725 23.392 23.058 22.725 22.380 22.046 21.710 21.373 21.030 20.677 20.387 20.081 19.713 19.285 19.010 19.045 19.213 19.429
   9.50  24.428 24.095 23.761 23.428 23.094 22.761 22.418 22.084 21.748 21.410 21.064 20.757 20.455 20.113 19.684 19.289 19.202 19.348 19.556
   9.75  24.775 24.442 24.109 23.775 23.442 23.108 22.769 22.435 22.100 21.765 21.426 21.109 20.805 20.487 20.096 19.637 19.395 19.484 19.682
   2.00   3.000  3.333  3.667  4.000  4.333  4.667  5.000  5.333  5.667  6.000  6.333  6.667  7.000  7.333  7.667  8.000  8.333  8.667  9.000
  -6.00   2.680  3.409  4.160  4.923  5.694  6.473  7.257  8.045  8.838  9.633 10.431 11.231 12.033 12.834 13.634 14.426 15.207 15.966 16.695
  -5.75   2.728  3.446  4.190  4.949  5.717  6.493  7.275  8.062  8.853  9.647 10.444 11.243 12.044 12.845 13.643 14.436 15.216 15.976 16.708
  -5.50   2.783  3.487  4.223  4.976  5.741  6.514  7.294  8.079  8.868  9.661 10.457 11.255 12.055 12.855 13.654 14.446 15.226 15.985 16.719
  -5.25   2.846  3.532  4.258  5.005  5.766  6.537  7.314  8.097  8.884  9.676 10.471 11.268 12.067 12.866 13.664 14.456 15.235 15.995 16.729
  -5.00   2.920  3.582  4.296  5.037  5.793  6.560  7.334  8.115  8.901  9.691 10.485 11.281 12.079 12.878 13.674 14.466 15.245 16.005 16.739
  -4.75   3.008  3.640  4.338  5.070  5.821  6.584  7.356  8.134  8.918  9.707 10.499 11.294 12.091 12.889 13.685 14.476 15.255 16.014 16.749
  -4.50   3.115  3.706  4.385  5.107  5.851  6.610  7.379  8.155  8.937  9.723 10.514 11.308 12.104 12.901 13.696 14.486 15.265 16.024 16.758
  -4.25   3.245  3.785  4.438  5.147  5.884  6.638  7.402  8.176  8.955  9.740 10.530 11.322 12.117 12.913 13.708 14.497 15.275 16.033 16.768
  -4.00   3.403  3.878  4.498  5.191  5.919  6.667  7.428  8.198  8.975  9.758 10.546 11.337 12.131 12.926 13.719 14.508 15.285 16.043 16.777
  -3.75   3.590  3.991  4.569  5.240  5.956  6.698  7.454  8.221  8.995  9.776 10.562 11.352 12.145 12.938 13.731 14.519 15.295 16.053 16.787
  -3.50   3.802  4.128  4.651  5.295  5.998  6.731  7.482  8.245  9.017  9.795 10.579 11.368 12.159 12.952 13.744 14.530 15.306 16.063 16.797
  -3.25   4.034  4.289  4.751  5.359  6.044  6.767  7.512  8.271  9.039  9.815 10.597 11.384 12.174 12.965 13.756 14.542 15.317 16.074 16.806
  -3.00   4.282  4.475  4.869  5.433  6.095  6.806  7.544  8.298  9.063  9.836 10.616 11.401 12.189 12.979 13.769 14.554 15.329 16.084 16.816
  -2.75   4.546  4.681  5.010  5.521  6.153  6.849  7.578  8.327  9.088  9.858 10.635 11.418 12.205 12.994 13.783 14.567 15.340 16.095 16.827
  -2.50   4.819  4.902  5.173  5.625  6.220  6.897  7.616  8.358  9.114  9.881 10.656 11.436 12.221 13.009 13.796 14.580 15.352 16.106 16.837
  -2.25   5.088  5.136  5.354  5.749  6.299  6.951  7.656  8.391  9.142  9.905 10.677 11.455 12.238 13.024 13.811 14.593 15.364 16.118 16.848
  -2.00   5.338  5.381  5.551  5.892  6.392  7.013  7.701  8.426  9.172  9.931 10.699 11.475 12.256 13.040 13.825 14.606 15.377 16.129 16.859
  -1.75   5.569  5.626  5.761  6.053  6.502  7.084  7.751  8.465  9.203  9.957 10.723 11.496 12.275 13.057 13.841 14.620 15.390 16.142 16.870
  -1.50   5.796  5.861  5.981  6.230  6.630  7.168  7.808  8.507  9.237  9.986 10.747 11.517 12.294 13.075 13.856 14.635 15.403 16.154 16.882
  -1.25   6.029  6.089  6.205  6.419  6.774  7.266  7.874  8.554  9.274 10.016 10.773 11.540 12.314 13.093 13.873 14.650 15.417 16.167 16.893
  -1.00   6.271  6.319  6.428  6.621  6.934  7.381  7.950  8.607  9.314 10.049 10.801 11.564 12.335 13.111 13.890 14.665 15.431 16.180 16.906
  -0.75   6.524  6.558  6.652  6.830  7.109  7.512  8.039  8.667  9.358 10.084 10.830 11.589 12.357 13.131 13.907 14.681 15.446 16.193 16.918
  -0.50   6.790  6.807  6.884  7.044  7.298  7.660  8.143  8.737  9.407 10.121 10.861 11.615 12.380 13.151 13.925 14.698 15.461 16.207 16.931
  -0.25   7.073  7.067  7.126  7.265  7.499  7.824  8.264  8.818  9.463 10.163 10.894 11.643 12.404 13.173 13.944 14.715 15.477 16.222 16.944
   0.00   7.374  7.339  7.379  7.495  7.709  8.006  8.402  8.914  9.527 10.209 10.930 11.673 12.430 13.195 13.964 14.733 15.493 16.237 16.958
   0.25   7.698  7.625  7.644  7.737  7.927  8.204  8.559  9.026  9.602 10.261 10.969 11.705 12.457 13.218 13.985 14.751 15.510 16.252 16.972
   0.50   8.046  7.927  7.920  7.991  8.156  8.414  8.736  9.155  9.690 10.320 11.012 11.739 12.485 13.243 14.007 14.771 15.527 16.268 16.987
   0.75   8.418  8.249  8.209  8.257  8.395  8.634  8.935  9.307  9.795 10.390 11.061 11.776 12.515 13.269 14.029 14.791 15.546 16.285 17.002
   1.00   8.810  8.594  8.511  8.533  8.646  8.862  9.149  9.483  9.918 10.472 11.116 11.817 12.548 13.296 14.053 14.812 15.565 16.302 17.018
   1.25   9.218  8.963  8.830  8.822  8.908  9.100  9.373  9.683 10.065 10.569 11.180 11.862 12.583 13.325 14.078 14.834 15.584 16.320 17.034
   1.50   9.638  9.353  9.170  9.122  9.181  9.346  9.605  9.902 10.239 10.686 11.257 11.914 12.621 13.356 14.105 14.857 15.605 16.338 17.051
   1.75  10.067  9.762  9.533  9.438  9.465  9.602  9.843 10.133 10.441 10.829 11.348 11.973 12.664 13.390 14.133 14.882 15.627 16.358 17.068
   2.00  10.502 10.184  9.918  9.771  9.761  9.867 10.087 10.371 10.665 11.001 11.460 12.044 12.712 13.426 14.162 14.907 15.649 16.378 17.086
   2.25  10.941 10.616 10.324 10.126 10.071 10.144 10.338 10.613 10.903 11.203 11.598 12.131 12.768 13.466 14.194 14.934 15.673 16.399 17.105
   2.50  11.385 11.056 10.745 10.503 10.396 10.431 10.596 10.859 11.148 11.431 11.767 12.237 12.834 13.511 14.228 14.962 15.698 16.421 17.125
   2.75  11.831 11.500 11.179 10.902 10.741 10.731 10.862 11.107 11.397 11.675 11.969 12.370 12.915 13.563 14.266 14.993 15.724 16.444 17.146
   3.00  12.280 11.947 11.620 11.320 11.108 11.046 11.138 11.360 11.646 11.927 12.198 12.536 13.017 13.625 14.308 15.025 15.751 16.469 17.167
   3.25  12.731 12.398 12.067 11.752 11.497 11.379 11.425 11.619 11.897 12.182 12.445 12.735 13.145 13.702 14.357 15.061 15.780 16.494 17.190
   3.50  13.184 12.851 12.518 12.193 11.908 11.732 11.725 11.883 12.149 12.438 12.702 12.963 13.306 13.798 14.415 15.101 15.812 16.521 17.214
   3.75  13.638 13.305 12.971 12.642 12.335 12.109 12.042 12.156 12.402 12.693 12.963 13.211 13.501 13.920 14.487 15.147 15.846 16.549 17.239
   4.00  14.094 13.760 13.426 13.094 12.774 12.508 12.378 12.440 12.659 12.947 13.225 13.470 13.726 14.076 14.577 15.201 15.883 16.580 17.265
   4.25  14.550 14.217 13.883 13.549 13.221 12.927 12.738 12.737 12.921 13.199 13.485 13.734 13.971 14.265 14.694 15.268 15.926 16.613 17.293
   4.50  15.007 14.638 14.303 13.969 13.636 13.323 13.081 13.051 13.188 13.451 13.742 13.999 14.227 14.483 14.842 15.352 15.977 16.649 17.322
   4.75  15.464 15.129 14.764 14.429 14.095 13.770 13.492 13.387 13.465 13.704 13.994 14.262 14.489 14.720 15.023 15.462 16.039 16.689 17.354
   5.00  15.919 15.585 15.224 14.889 14.554 14.222 13.918 13.709 13.754 13.958 14.243 14.519 14.752 14.968 15.229 15.600 16.117 16.736 17.389
   5.25  16.372 16.038 15.680 15.345 15.010 14.675 14.355 14.099 14.060 14.214 14.487 14.770 15.011 15.220 15.452 15.767 16.217 16.793 17.427
   5.50  16.821 16.487 16.132 15.797 15.462 15.126 14.796 14.506 14.386 14.477 14.727 15.013 15.264 15.471 15.683 15.957 16.342 16.864 17.471
   5.75  17.265 16.931 16.578 16.243 15.908 15.571 15.237 14.923 14.696 14.748 14.963 15.246 15.507 15.718 15.915 16.159 16.492 16.953 17.523
   6.00  17.702 17.368 17.034 16.681 16.346 16.009 15.672 15.345 15.073 15.033 15.197 15.469 15.738 15.955 16.143 16.364 16.658 17.063 17.587
   6.25  18.128 17.794 17.460 17.109 16.774 16.437 16.099 15.764 15.460 15.334 15.430 15.681 15.954 16.180 16.365 16.567 16.833 17.190 17.663
   6.50  18.543 18.209 17.875 17.524 17.189 16.853 16.514 16.175 15.851 15.653 15.668 15.883 16.154 16.390 16.576 16.765 17.009 17.330 17.754
   6.75  18.944 18.611 18.277 17.926 17.591 17.255 16.917 16.576 16.240 15.949 15.915 16.077 16.339 16.584 16.776 16.956 17.182 17.477 17.858
   7.00  19.332 18.998 18.664 18.330 17.979 17.644 17.306 16.964 16.622 16.303 16.178 16.268 16.509 16.761 16.962 17.138 17.351 17.626 17.972
   7.25  19.706 19.373 19.039 18.705 18.354 18.019 17.681 17.340 16.996 16.659 16.458 16.465 16.669 16.921 17.134 17.312 17.514 17.773 18.093
   7.50  20.070 19.736 19.403 19.069 18.718 18.382 18.046 17.705 17.360 17.014 16.757 16.676 16.823 17.069 17.293 17.477 17.673 17.918 18.218
   7.75  20.424 20.091 19.757 19.423 19.072 18.737 18.401 18.061 17.716 17.367 17.030 16.909 16.981 17.206 17.439 17.632 17.825 18.061 18.345
   8.00  20.772 20.439 20.105 19.771 19.437 19.085 18.750 18.411 18.067 17.716 17.366 17.167 17.155 17.338 17.574 17.778 17.973 18.201 18.471
   8.25  21.116 20.783 20.449 20.115 19.781 19.430 19.094 18.756 18.414 18.064 17.707 17.450 17.352 17.473 17.701 17.917 18.115 18.337 18.597
   8.50  21.458 21.125 20.791 20.458 20.124 19.772 19.437 19.100 18.758 18.410 18.052 17.755 17.580 17.621 17.824 18.047 18.251 18.471 18.722
   8.75  21.800 21.467 21.133 20.800 20.466 20.114 19.779 19.443 19.103 18.756 18.399 18.034 17.839 17.793 17.948 18.172 18.383 18.601 18.846
   9.00  22.143 21.810 21.476 21.143 20.809 20.475 20.123 19.787 19.448 19.103 18.748 18.380 18.126 17.998 18.081 18.292 18.510 18.729 18.969
   9.25  22.489 22.155 21.822 21.488 21.155 20.821 20.469 20.133 19.795 19.452 19.100 18.733 18.437 18.239 18.236 18.412 18.633 18.855 19.091
   9.50  22.838 22.504 22.171 21.837 21.504 21.170 20.818 20.483 20.146 19.804 19.454 19.090 18.768 18.515 18.423 18.537 18.753 18.977 19.211
   9.75  23.190 22.857 22.524 22.190 21.857 21.523 21.172 20.837 20.500 20.160 19.813 19.452 19.072 18.820 18.650 18.679 18.871 19.097 19.330
   3.00   3.000  3.333  3.667  4.000  4.333  4.667  5.000  5.333  5.667  6.000  6.333  6.667  7.000  7.333  7.667  8.000  8.333  8.667  9.000
  -6.00   2.500  3.232  3.985  4.750  5.523  6.303  7.087  7.876  8.668  9.463 10.261 11.061 11.862 12.663 13.462 14.255 15.035 15.793 16.523
  -5.75   2.549  3.268  4.014  4.775  5.546  6.323  7.105  7.892  8.683  9.477 10.274 11.073 11.873 12.674 13.472 14.264 15.044 15.804 16.535
  -5.50   2.604  3.308  4.046  4.803  5.570  6.344  7.124  7.909  8.699  9.491 10.287 11.085 11.885 12.684 13.482 14.274 15.054 15.813 16.546
  -5.25   2.667  3.353  4.081  4.831  5.594  6.366  7.144  7.927  8.715  9.506 10.301 11.098 11.896 12.695 13.493 14.284 15.064 15.823 16.557
  -5.00   2.741  3.403  4.119  4.862  5.621  6.389  7.165  7.946  8.732  9.522 10.315 11.111 11.909 12.707 13.503 14.294 15.073 15.833 16.567
  -4.75   2.831  3.461  4.160  4.895  5.649  6.414  7.186  7.965  8.749  9.538 10.330 11.124 11.921 12.718 13.514 14.305 15.083 15.842 16.577
  -4.50   2.940  3.527  4.207  4.931  5.678  6.439  7.209  7.985  8.768  9.554 10.345 11.138 11.934 12.730 13.525 14.315 15.093 15.852 16.586
