
 ROSSELAND MASS ABSORPTION COEFFICENTS
 logT logP  0km/s  1km/s  2km/s  4km/s  8km/s  log Ne   log Na  log rho IPloCM-1
 3.32-2.00 -6.477 -6.472 -6.464 -6.449 -6.429  2.54481 10.54033-13.13395
 3.32-1.50 -6.522 -6.517 -6.510 -6.496 -6.477  2.87754 11.04139-12.63302
 3.32-1.00 -6.547 -6.544 -6.536 -6.523 -6.504  3.21378 11.54419-12.13024
 3.32-0.50 -6.545 -6.541 -6.533 -6.519 -6.500  3.57738 12.05231-11.62197
 3.32 0.00 -6.516 -6.511 -6.503 -6.488 -6.467  3.99352 12.57380-11.10062
 3.32 0.50 -6.469 -6.464 -6.455 -6.438 -6.415  4.46894 13.11494-10.55956
 3.32 1.00 -6.413 -6.409 -6.400 -6.382 -6.358  4.96820 13.66829-10.00603
 3.32 1.25 -6.385 -6.380 -6.371 -6.354 -6.329  5.20953 13.94330 -9.73096
 3.32 1.50 -6.356 -6.352 -6.343 -6.327 -6.303  5.44373 14.21643 -9.45780
 3.32 1.75 -6.326 -6.322 -6.315 -6.299 -6.277  5.66719 14.48542 -9.18895
 3.32 2.00 -6.296 -6.292 -6.286 -6.272 -6.252  5.88361 14.75113 -8.92336
 3.32 2.25 -6.265 -6.262 -6.256 -6.244 -6.226  6.09302 15.01336 -8.66105
 3.32 2.50 -6.233 -6.231 -6.226 -6.215 -6.199  6.30016 15.27300 -8.40132
 3.32 2.75 -6.201 -6.199 -6.195 -6.186 -6.172  6.50560 15.53044 -8.14382
 3.32 3.00 -6.168 -6.166 -6.162 -6.154 -6.142  6.71105 15.78618 -7.88807
 3.32 3.20 -6.140 -6.139 -6.135 -6.128 -6.117  6.87682 15.98972 -7.68460
 3.32 3.40 -6.112 -6.110 -6.108 -6.102 -6.092  7.04259 16.19260 -7.48177
 3.32 3.60 -6.084 -6.083 -6.080 -6.075 -6.067  7.20748 16.39489 -7.27951
 3.32 3.80 -6.056 -6.055 -6.053 -6.048 -6.040  7.36947 16.59677 -7.07764
 3.32 4.00 -6.026 -6.025 -6.023 -6.019 -6.013  7.52879 16.79824 -6.87615
 3.32 4.20 -5.998 -5.997 -5.996 -5.992 -5.985  7.68084 16.99933 -6.67499
 3.32 4.40 -5.968 -5.967 -5.965 -5.962 -5.955  7.82748 17.20022 -6.47405
 3.32 4.60 -5.935 -5.935 -5.933 -5.929 -5.922  7.96793 17.40096 -6.27331
 3.32 4.80 -5.900 -5.899 -5.897 -5.893 -5.886  8.10322 17.60159 -6.07271
 3.32 5.00 -5.860 -5.860 -5.858 -5.853 -5.846  8.23452 17.80209 -5.87225
 3.32 5.20 -5.816 -5.815 -5.813 -5.809 -5.802  8.36158 18.00238 -5.67192
 3.32 5.40 -5.765 -5.764 -5.762 -5.758 -5.751  8.48780 18.20264 -5.47163
 3.32 5.60 -5.708 -5.707 -5.706 -5.701 -5.693  8.61320 18.40289 -5.27138
 3.32 5.80 -5.642 -5.641 -5.640 -5.636 -5.628  8.73841 18.60312 -5.07115
 3.32 6.00 -5.566 -5.565 -5.563 -5.559 -5.552  8.86362 18.80332 -4.87096
 3.32 6.25 -5.449 -5.449 -5.447 -5.443 -5.437  9.02304 19.05350 -4.62087
 3.32 6.50 -5.299 -5.299 -5.297 -5.294 -5.288  9.18441 19.30363 -4.37080
 3.32 6.75 -5.098 -5.098 -5.096 -5.094 -5.089  9.34868 19.55368 -4.12071
 3.32 7.00 -4.943 -4.943 -4.942 -4.940 -4.936  9.51295 19.80373 -3.87063
 3.32 7.25 -4.839 -4.839 -4.838 -4.836 -4.833  9.67499 20.05379 -3.62060
 3.32 7.50 -4.735 -4.735 -4.734 -4.733 -4.730  9.83449 20.30384 -3.37059
 3.32 7.75 -4.630 -4.630 -4.630 -4.628 -4.626  9.98825 20.55387 -3.12060
 3.32 8.00 -4.524 -4.524 -4.523 -4.522 -4.521 10.13735 20.80387 -2.87063
 3.34-2.00 -6.328 -6.323 -6.313 -6.296 -6.271  2.78469 10.51996-13.15441
 3.34-1.50 -6.371 -6.366 -6.357 -6.340 -6.316  3.14922 11.02036-12.65404
 3.34-1.00 -6.405 -6.400 -6.392 -6.375 -6.353  3.49108 11.52114-12.15323
 3.34-0.50 -6.418 -6.413 -6.405 -6.388 -6.366  3.82308 12.02366-11.65053
 3.34 0.00 -6.401 -6.396 -6.387 -6.370 -6.346  4.16554 12.53199-11.14237
 3.34 0.50 -6.353 -6.348 -6.338 -6.320 -6.294  4.54617 13.05269-10.62160
 3.34 1.00 -6.286 -6.281 -6.271 -6.252 -6.225  4.98829 13.59329-10.08103
 3.34 1.25 -6.250 -6.245 -6.236 -6.217 -6.191  5.23184 13.87002 -9.80435
 3.34 1.50 -6.216 -6.211 -6.203 -6.185 -6.160  5.47538 14.14675 -9.52768
 3.34 1.75 -6.183 -6.179 -6.171 -6.155 -6.132  5.71701 14.42190 -9.25256
 3.34 2.00 -6.152 -6.149 -6.142 -6.128 -6.107  5.95588 14.69522 -8.97922
 3.34 2.25 -6.124 -6.121 -6.115 -6.102 -6.084  6.18307 14.96434 -8.71007
 3.34 2.50 -6.097 -6.094 -6.089 -6.078 -6.062  6.40278 15.23019 -8.44418
 3.34 2.75 -6.070 -6.068 -6.063 -6.054 -6.040  6.61486 15.49267 -8.18173
 3.34 3.00 -6.044 -6.042 -6.038 -6.030 -6.018  6.82269 15.75251 -7.92191
 3.34 3.20 -6.022 -6.020 -6.017 -6.010 -5.999  6.98569 15.95863 -7.71578
 3.34 3.40 -5.999 -5.997 -5.995 -5.989 -5.978  7.14869 16.16366 -7.51073
 3.34 3.60 -5.975 -5.974 -5.971 -5.965 -5.957  7.31171 16.36765 -7.30666
 3.34 3.80 -5.949 -5.948 -5.946 -5.941 -5.933  7.47475 16.57094 -7.10331
 3.34 4.00 -5.920 -5.919 -5.918 -5.914 -5.907  7.63779 16.77357 -6.90066
 3.34 4.20 -5.893 -5.893 -5.891 -5.886 -5.879  7.79971 16.97567 -6.69870
 3.34 4.40 -5.864 -5.864 -5.862 -5.857 -5.850  7.96015 17.17737 -6.49709
 3.34 4.60 -5.833 -5.832 -5.830 -5.826 -5.819  8.11720 17.37867 -6.29579
 3.34 4.80 -5.800 -5.800 -5.798 -5.794 -5.786  8.26834 17.57972 -6.09469
 3.34 5.00 -5.767 -5.766 -5.764 -5.759 -5.751  8.41464 17.78053 -5.89381
 3.34 5.20 -5.731 -5.730 -5.728 -5.723 -5.715  8.55418 17.98119 -5.69319
 3.34 5.40 -5.693 -5.692 -5.691 -5.686 -5.679  8.68934 18.18172 -5.49267
 3.34 5.60 -5.655 -5.654 -5.652 -5.647 -5.639  8.81964 18.38215 -5.29220
 3.34 5.80 -5.614 -5.613 -5.611 -5.607 -5.599  8.94714 18.58250 -5.09178
 3.34 6.00 -5.571 -5.570 -5.568 -5.564 -5.556  9.07298 18.78276 -4.89144
 3.34 6.25 -5.514 -5.513 -5.512 -5.508 -5.500  9.22849 19.03292 -4.64129
 3.34 6.50 -5.453 -5.453 -5.451 -5.447 -5.440  9.38400 19.28308 -4.39115
 3.34 6.75 -5.387 -5.387 -5.385 -5.381 -5.375  9.54111 19.53328 -4.14096
 3.34 7.00 -5.317 -5.316 -5.315 -5.311 -5.305  9.69949 19.78348 -3.89076
 3.34 7.25 -5.241 -5.241 -5.240 -5.236 -5.231  9.86013 20.03350 -3.64073
 3.34 7.50 -5.161 -5.161 -5.160 -5.157 -5.152 10.02078 20.28353 -3.39073
 3.34 7.75 -5.079 -5.078 -5.077 -5.075 -5.071 10.17939 20.53359 -3.14073
 3.34 8.00 -4.995 -4.994 -4.993 -4.991 -4.988 10.33666 20.78369 -2.89076
 3.36-2.00 -6.207 -6.201 -6.191 -6.171 -6.145  2.93202 10.49996-13.17444
 3.36-1.50 -6.235 -6.229 -6.219 -6.200 -6.174  3.34557 10.99996-12.67448
 3.36-1.00 -6.263 -6.258 -6.247 -6.228 -6.202  3.72989 11.50024-12.17406
 3.36-0.50 -6.278 -6.272 -6.262 -6.242 -6.217  4.08600 12.00130-11.67325
 3.36 0.00 -6.266 -6.261 -6.250 -6.230 -6.202  4.42308 12.50406-11.17031
 3.36 0.50 -6.224 -6.218 -6.207 -6.186 -6.157  4.75785 13.01242-10.66214
 3.36 1.00 -6.159 -6.154 -6.143 -6.122 -6.093  5.11561 13.53339-10.14092
 3.36 1.25 -6.123 -6.118 -6.108 -6.089 -6.060  5.31369 13.80201 -9.87237
 3.36 1.50 -6.089 -6.084 -6.075 -6.057 -6.031  5.52504 14.07445 -9.59998
 3.36 1.75 -6.055 -6.050 -6.043 -6.027 -6.003  5.75457 14.35116 -9.32323
 3.36 2.00 -6.024 -6.020 -6.013 -6.000 -5.979  5.98909 14.62788 -9.04648
 3.36 2.25 -5.996 -5.992 -5.986 -5.974 -5.956  6.22724 14.90292 -8.77142
 3.36 2.50 -5.969 -5.966 -5.961 -5.951 -5.935  6.46538 15.17609 -8.49826
 3.36 2.75 -5.944 -5.942 -5.937 -5.927 -5.913  6.69407 15.44513 -8.22917
 3.36 3.00 -5.919 -5.917 -5.912 -5.904 -5.892  6.91609 15.71088 -7.96337
 3.36 3.20 -5.898 -5.896 -5.893 -5.885 -5.873  7.08766 15.92086 -7.75338
 3.36 3.40 -5.876 -5.874 -5.871 -5.865 -5.854  7.25594 16.12919 -7.54506
 3.36 3.60 -5.853 -5.851 -5.849 -5.843 -5.833  7.42070 16.33597 -7.33840
 3.36 3.80 -5.828 -5.827 -5.825 -5.819 -5.809  7.58358 16.54158 -7.13292
 3.36 4.00 -5.800 -5.799 -5.797 -5.792 -5.784  7.74539 16.74609 -6.92849
 3.36 4.20 -5.773 -5.772 -5.770 -5.765 -5.757  7.90679 16.94956 -6.72488
 3.36 4.40 -5.743 -5.742 -5.740 -5.735 -5.727  8.06754 17.15240 -6.52191
 3.36 4.60 -5.710 -5.709 -5.707 -5.702 -5.694  8.22788 17.35467 -6.31956
 3.36 4.80 -5.675 -5.674 -5.672 -5.667 -5.659  8.38750 17.55657 -6.11764
 3.36 5.00 -5.637 -5.636 -5.634 -5.629 -5.621  8.54605 17.75808 -5.91614
 3.36 5.20 -5.598 -5.597 -5.595 -5.590 -5.582  8.69973 17.95923 -5.71504
 3.36 5.40 -5.557 -5.556 -5.554 -5.550 -5.542  8.84921 18.16016 -5.51413
 3.36 5.60 -5.515 -5.514 -5.512 -5.508 -5.500  8.99334 18.36091 -5.31337
 3.36 5.80 -5.471 -5.471 -5.469 -5.464 -5.456  9.13191 18.56153 -5.11272
 3.36 6.00 -5.426 -5.425 -5.423 -5.419 -5.411  9.26600 18.76200 -4.91222
 3.36 6.25 -5.366 -5.365 -5.364 -5.360 -5.353  9.42724 19.01237 -4.66189
 3.36 6.50 -5.303 -5.302 -5.301 -5.297 -5.290  9.58501 19.26269 -4.41162
 3.36 6.75 -5.236 -5.235 -5.234 -5.230 -5.224  9.73969 19.51300 -4.16136
 3.36 7.00 -5.163 -5.162 -5.161 -5.157 -5.152  9.89437 19.76328 -3.91116
 3.36 7.25 -5.084 -5.084 -5.083 -5.080 -5.075 10.04952 20.01334 -3.66104
 3.36 7.50 -5.000 -5.000 -4.999 -4.996 -4.992 10.20520 20.26340 -3.41094
 3.36 7.75 -4.912 -4.912 -4.911 -4.909 -4.905 10.36214 20.51351 -3.16086
 3.36 8.00 -4.821 -4.820 -4.820 -4.818 -4.815 10.52009 20.76365 -2.91080
 3.38-2.00 -6.114 -6.109 -6.098 -6.077 -6.049  3.00561 10.47986-13.19450
 3.38-1.50 -6.128 -6.122 -6.112 -6.091 -6.063  3.45773 10.97987-12.69443
 3.38-1.00 -6.142 -6.137 -6.126 -6.104 -6.076  3.88677 11.48001-12.19436
 3.38-0.50 -6.148 -6.141 -6.131 -6.109 -6.080  4.28959 11.98028-11.69400
 3.38 0.00 -6.132 -6.126 -6.114 -6.092 -6.061  4.66257 12.48130-11.19308
 3.38 0.50 -6.089 -6.083 -6.071 -6.048 -6.017  5.01030 12.98430-10.69016
 3.38 1.00 -6.027 -6.021 -6.010 -5.988 -5.958  5.34616 13.49318-10.18125
 3.38 1.25 -5.992 -5.987 -5.977 -5.956 -5.928  5.51721 13.75227 -9.92211
 3.38 1.50 -5.959 -5.955 -5.945 -5.927 -5.901  5.69232 14.01536 -9.65896
 3.38 1.75 -5.928 -5.924 -5.916 -5.900 -5.876  5.87897 14.28468 -9.38965
 3.38 2.00 -5.900 -5.896 -5.889 -5.875 -5.855  6.07664 14.55763 -9.11674
 3.38 2.25 -5.873 -5.870 -5.864 -5.852 -5.834  6.29054 14.83445 -8.83997
 3.38 2.50 -5.848 -5.845 -5.840 -5.829 -5.813  6.51322 15.11126 -8.56320
 3.38 2.75 -5.822 -5.819 -5.814 -5.804 -5.790  6.74474 15.38608 -8.28835
 3.38 3.00 -5.794 -5.792 -5.788 -5.779 -5.766  6.97626 15.65877 -8.01556
 3.38 3.20 -5.771 -5.769 -5.765 -5.757 -5.745  7.15821 15.87386 -7.80052
 3.38 3.40 -5.747 -5.745 -5.742 -5.734 -5.722  7.33735 16.08685 -7.58757
 3.38 3.60 -5.721 -5.720 -5.716 -5.710 -5.699  7.51238 16.29765 -7.37682
 3.38 3.80 -5.694 -5.692 -5.690 -5.684 -5.674  7.68292 16.50660 -7.16790
 3.38 4.00 -5.665 -5.664 -5.662 -5.656 -5.647  7.85009 16.71391 -6.96059
 3.38 4.20 -5.637 -5.636 -5.634 -5.629 -5.620  8.01397 16.91977 -6.75462
 3.38 4.40 -5.607 -5.606 -5.604 -5.599 -5.590  8.17609 17.12458 -6.54974
 3.38 4.60 -5.575 -5.574 -5.571 -5.566 -5.558  8.33663 17.32842 -6.34594
 3.38 4.80 -5.540 -5.539 -5.537 -5.532 -5.523  8.49622 17.53157 -6.14289
 3.38 5.00 -5.502 -5.501 -5.499 -5.494 -5.485  8.65485 17.73408 -5.94044
 3.38 5.20 -5.461 -5.460 -5.458 -5.453 -5.445  8.81319 17.93605 -5.73840
 3.38 5.40 -5.417 -5.416 -5.414 -5.409 -5.401  8.97033 18.13764 -5.53673
 3.38 5.60 -5.370 -5.370 -5.368 -5.363 -5.355  9.12539 18.33888 -5.33546
 3.38 5.80 -5.321 -5.321 -5.319 -5.314 -5.307  9.27655 18.53988 -5.13445
 3.38 6.00 -5.271 -5.270 -5.269 -5.264 -5.257  9.42407 18.74068 -4.93367
 3.38 6.25 -5.204 -5.203 -5.201 -5.198 -5.191  9.59986 18.99146 -4.68297
 3.38 6.50 -5.134 -5.134 -5.132 -5.129 -5.123  9.76871 19.24205 -4.43239
 3.38 6.75 -5.060 -5.059 -5.058 -5.055 -5.050  9.93042 19.49247 -4.18186
 3.38 7.00 -4.982 -4.982 -4.981 -4.978 -4.973 10.08814 19.74280 -3.93144
 3.38 7.25 -4.900 -4.900 -4.899 -4.896 -4.892 10.24222 19.99308 -3.68127
 3.38 7.50 -4.814 -4.813 -4.812 -4.810 -4.806 10.39585 20.24329 -3.43109
 3.38 7.75 -4.723 -4.723 -4.722 -4.720 -4.717 10.54935 20.49343 -3.18090
 3.38 8.00 -4.629 -4.629 -4.628 -4.626 -4.623 10.70260 20.74351 -2.93070
 3.40-2.00 -6.047 -6.041 -6.029 -6.008 -5.980  3.02036 10.45984-13.21446
 3.40-1.50 -6.048 -6.041 -6.030 -6.008 -5.979  3.50420 10.95985-12.71444
 3.40-1.00 -6.048 -6.042 -6.031 -6.009 -5.979  3.97039 11.46000-12.21446
 3.40-0.50 -6.042 -6.036 -6.024 -6.001 -5.970  4.41296 11.96000-11.71444
 3.40 0.00 -6.017 -6.011 -5.999 -5.975 -5.943  4.83123 12.46045-11.21396
 3.40 0.50 -5.969 -5.962 -5.950 -5.926 -5.894  5.22063 12.96147-10.71287
 3.40 1.00 -5.905 -5.899 -5.887 -5.865 -5.836  5.58172 13.46494-10.20950
 3.40 1.25 -5.869 -5.864 -5.854 -5.834 -5.807  5.75295 13.71868 -9.95577
 3.40 1.50 -5.835 -5.830 -5.821 -5.804 -5.779  5.92418 13.97460 -9.69984
 3.40 1.75 -5.802 -5.798 -5.790 -5.774 -5.753  6.09560 14.23463 -9.43976
 3.40 2.00 -5.772 -5.768 -5.761 -5.748 -5.728  6.26741 14.49886 -9.17548
 3.40 2.25 -5.745 -5.741 -5.735 -5.723 -5.706  6.44790 14.76929 -8.90515
 3.40 2.50 -5.719 -5.716 -5.711 -5.700 -5.684  6.63639 15.04297 -8.63153
 3.40 2.75 -5.694 -5.691 -5.686 -5.675 -5.661  6.83746 15.31984 -8.35461
 3.40 3.00 -5.666 -5.663 -5.659 -5.649 -5.636  7.04766 15.59671 -8.07769
 3.40 3.20 -5.641 -5.638 -5.635 -5.626 -5.613  7.22503 15.81640 -7.85803
 3.40 3.40 -5.614 -5.612 -5.608 -5.600 -5.587  7.40240 16.03453 -7.63995
 3.40 3.60 -5.585 -5.583 -5.580 -5.572 -5.561  7.57973 16.25051 -7.42400
 3.40 3.80 -5.554 -5.552 -5.550 -5.543 -5.532  7.75685 16.46395 -7.21053
 3.40 4.00 -5.521 -5.520 -5.518 -5.512 -5.503  7.93374 16.67532 -6.99913
 3.40 4.20 -5.491 -5.490 -5.488 -5.482 -5.473  8.10517 16.88462 -6.78987
 3.40 4.40 -5.459 -5.458 -5.456 -5.450 -5.441  8.27365 17.09235 -6.58215
 3.40 4.60 -5.425 -5.424 -5.422 -5.417 -5.408  8.43897 17.29854 -6.37588
 3.40 4.80 -5.390 -5.389 -5.387 -5.382 -5.373  8.60178 17.50360 -6.17071
 3.40 5.00 -5.351 -5.351 -5.349 -5.344 -5.335  8.76253 17.70766 -5.96658
 3.40 5.20 -5.311 -5.310 -5.308 -5.303 -5.295  8.92169 17.91086 -5.76342
 3.40 5.40 -5.266 -5.265 -5.263 -5.259 -5.251  9.07959 18.11349 -5.56085
 3.40 5.60 -5.218 -5.217 -5.215 -5.211 -5.203  9.23662 18.31558 -5.35885
 3.40 5.80 -5.165 -5.164 -5.162 -5.158 -5.151  9.39263 18.51730 -5.15719
 3.40 6.00 -5.109 -5.108 -5.106 -5.103 -5.096  9.54716 18.71867 -4.95585
 3.40 6.25 -5.033 -5.033 -5.031 -5.028 -5.022  9.73605 18.96994 -4.70448
 3.40 6.50 -4.953 -4.952 -4.951 -4.948 -4.942  9.91971 19.22089 -4.45346
 3.40 6.75 -4.869 -4.869 -4.868 -4.865 -4.860 10.09504 19.47159 -4.20284
 3.40 7.00 -4.783 -4.782 -4.781 -4.779 -4.775 10.26364 19.72214 -3.95234
 3.40 7.25 -4.694 -4.693 -4.693 -4.690 -4.687 10.42501 19.97262 -3.70187
 3.40 7.50 -4.603 -4.602 -4.602 -4.599 -4.596 10.58206 20.22298 -3.45149
 3.40 7.75 -4.510 -4.510 -4.509 -4.507 -4.504 10.73639 20.47320 -3.20126
 3.40 8.00 -4.416 -4.416 -4.415 -4.413 -4.411 10.88745 20.72329 -2.95117
 3.42-2.00 -5.992 -5.986 -5.975 -5.954 -5.926  3.03342 10.43996-13.23441
 3.42-1.50 -5.988 -5.981 -5.970 -5.948 -5.918  3.51188 10.93992-12.73448
 3.42-1.00 -5.978 -5.972 -5.960 -5.937 -5.907  3.99686 11.43996-12.23441
 3.42-0.50 -5.960 -5.954 -5.941 -5.918 -5.886  4.47261 11.93997-11.73448
 3.42 0.00 -5.926 -5.919 -5.906 -5.882 -5.850  4.92773 12.44012-11.23426
 3.42 0.50 -5.870 -5.863 -5.851 -5.827 -5.795  5.35851 12.94052-10.73377
 3.42 1.00 -5.800 -5.794 -5.784 -5.762 -5.734  5.76268 13.44185-10.23255
 3.42 1.25 -5.762 -5.756 -5.747 -5.728 -5.702  5.95338 13.69333 -9.98108
 3.42 1.50 -5.724 -5.719 -5.711 -5.694 -5.671  6.13767 13.94576 -9.72862
 3.42 1.75 -5.685 -5.681 -5.674 -5.659 -5.638  6.31495 14.20019 -9.47419
 3.42 2.00 -5.649 -5.645 -5.639 -5.625 -5.607  6.48982 14.45713 -9.21724
 3.42 2.25 -5.614 -5.610 -5.604 -5.593 -5.575  6.66285 14.71841 -8.95598
 3.42 2.50 -5.581 -5.578 -5.572 -5.561 -5.545  6.83588 14.98403 -8.69037
 3.42 2.75 -5.550 -5.547 -5.542 -5.531 -5.516  7.01393 15.25601 -8.41834
 3.42 3.00 -5.520 -5.517 -5.513 -5.503 -5.489  7.19701 15.53058 -8.14375
 3.42 3.20 -5.495 -5.493 -5.488 -5.479 -5.466  7.34991 15.75204 -7.92235
 3.42 3.40 -5.468 -5.466 -5.462 -5.454 -5.441  7.50768 15.97349 -7.70094
 3.42 3.60 -5.439 -5.437 -5.434 -5.426 -5.415  7.67167 16.19399 -7.48047
 3.42 3.80 -5.407 -5.406 -5.403 -5.397 -5.386  7.83989 16.41218 -7.26225
 3.42 4.00 -5.373 -5.372 -5.369 -5.364 -5.354  8.01030 16.62859 -7.04581
 3.42 4.20 -5.339 -5.338 -5.336 -5.330 -5.321  8.18261 16.84226 -6.83213
 3.42 4.40 -5.303 -5.302 -5.300 -5.295 -5.287  8.35491 17.05390 -6.62048
 3.42 4.60 -5.266 -5.265 -5.263 -5.259 -5.250  8.52587 17.26347 -6.41090
 3.42 4.80 -5.228 -5.227 -5.225 -5.220 -5.212  8.69388 17.47137 -6.20297
 3.42 5.00 -5.187 -5.186 -5.184 -5.179 -5.171  8.85974 17.67779 -5.99654
 3.42 5.20 -5.143 -5.143 -5.141 -5.136 -5.129  9.02271 17.88294 -5.79143
 3.42 5.40 -5.097 -5.096 -5.095 -5.091 -5.083  9.18367 18.08717 -5.58722
 3.42 5.60 -5.047 -5.046 -5.044 -5.040 -5.033  9.34274 18.29051 -5.38383
 3.42 5.80 -4.992 -4.991 -4.990 -4.986 -4.979  9.50028 18.49324 -5.18102
 3.42 6.00 -4.933 -4.932 -4.931 -4.927 -4.921  9.65629 18.69539 -4.97881
 3.42 6.25 -4.852 -4.852 -4.850 -4.847 -4.842  9.84984 18.94738 -4.72686
 3.42 6.50 -4.765 -4.765 -4.764 -4.761 -4.756 10.04060 19.19893 -4.47534
 3.42 6.75 -4.672 -4.672 -4.671 -4.668 -4.664 10.22736 19.45024 -4.22405
 3.42 7.00 -4.576 -4.576 -4.575 -4.573 -4.569 10.40909 19.70122 -3.97306
 3.42 7.25 -4.478 -4.478 -4.477 -4.475 -4.472 10.58284 19.95176 -3.72243
 3.42 7.50 -4.381 -4.380 -4.379 -4.378 -4.375 10.75004 20.20222 -3.47198
 3.42 7.75 -4.284 -4.283 -4.283 -4.281 -4.279 10.91113 20.45265 -3.22164
 3.42 8.00 -4.188 -4.187 -4.187 -4.185 -4.184 11.06595 20.70303 -2.97143
 3.44-2.00 -5.905 -5.900 -5.891 -5.873 -5.849  3.21617 10.41996-13.25446
 3.44-1.50 -5.922 -5.917 -5.906 -5.886 -5.858  3.59649 10.91991-12.75449
 3.44-1.00 -5.919 -5.913 -5.902 -5.879 -5.850  4.02857 11.41996-12.25446
 3.44-0.50 -5.898 -5.891 -5.878 -5.855 -5.824  4.49471 11.91991-11.75449
 3.44 0.00 -5.855 -5.848 -5.835 -5.811 -5.778  4.97011 12.41996-11.25438
 3.44 0.50 -5.792 -5.785 -5.773 -5.749 -5.717  5.43409 12.92012-10.75424
 3.44 1.00 -5.714 -5.709 -5.699 -5.678 -5.650  5.87552 13.42062-10.25368
 3.44 1.25 -5.672 -5.667 -5.658 -5.639 -5.615  6.08708 13.67120-10.00305
 3.44 1.50 -5.629 -5.624 -5.616 -5.600 -5.578  6.29204 13.92221 -9.75203
 3.44 1.75 -5.584 -5.580 -5.573 -5.558 -5.538  6.48952 14.17408 -9.50021
 3.44 2.00 -5.539 -5.535 -5.528 -5.515 -5.497  6.68043 14.42716 -9.24726
 3.44 2.25 -5.493 -5.490 -5.483 -5.471 -5.454  6.86423 14.68240 -8.99206
 3.44 2.50 -5.448 -5.445 -5.439 -5.427 -5.412  7.04415 14.94047 -8.73400
 3.44 2.75 -5.404 -5.401 -5.396 -5.385 -5.370  7.22035 15.20356 -8.47088
 3.44 3.00 -5.363 -5.360 -5.355 -5.346 -5.331  7.39655 15.47114 -8.20329
 3.44 3.20 -5.331 -5.329 -5.324 -5.315 -5.302  7.53878 15.69014 -7.98443
 3.44 3.40 -5.301 -5.299 -5.295 -5.286 -5.274  7.68244 15.91006 -7.76455
 3.44 3.60 -5.270 -5.268 -5.265 -5.258 -5.247  7.82847 16.13089 -7.54365
 3.44 3.80 -5.238 -5.237 -5.234 -5.228 -5.218  7.97834 16.35194 -7.32249
 3.44 4.00 -5.205 -5.204 -5.201 -5.196 -5.187  8.13162 16.57299 -7.10133
 3.44 4.20 -5.172 -5.171 -5.168 -5.163 -5.155  8.29012 16.79122 -6.88309
 3.44 4.40 -5.135 -5.134 -5.132 -5.128 -5.120  8.45150 17.00752 -6.66681
 3.44 4.60 -5.095 -5.094 -5.092 -5.088 -5.080  8.61640 17.22155 -6.45282
 3.44 4.80 -5.053 -5.053 -5.051 -5.047 -5.039  8.78268 17.43328 -6.24110
 3.44 5.00 -5.008 -5.007 -5.006 -5.002 -4.995  8.94895 17.64306 -6.03133
 3.44 5.20 -4.960 -4.960 -4.958 -4.954 -4.948  9.11416 17.85092 -5.82343
 3.44 5.40 -4.910 -4.909 -4.908 -4.904 -4.898  9.27833 18.05742 -5.61689
 3.44 5.60 -4.857 -4.856 -4.854 -4.851 -4.845  9.44092 18.26266 -5.41168
 3.44 5.80 -4.799 -4.798 -4.797 -4.794 -4.788  9.60141 18.46699 -5.20740
 3.44 6.00 -4.738 -4.737 -4.736 -4.733 -4.728  9.76020 18.67043 -5.00397
 3.44 6.25 -4.655 -4.655 -4.654 -4.651 -4.646  9.95631 18.92364 -4.75064
 3.44 6.50 -4.566 -4.565 -4.564 -4.562 -4.558 10.14983 19.17609 -4.49812
 3.44 6.75 -4.470 -4.470 -4.469 -4.466 -4.462 10.34115 19.42805 -4.24624
 3.44 7.00 -4.368 -4.368 -4.367 -4.365 -4.362 10.52930 19.67952 -3.99482
 3.44 7.25 -4.264 -4.264 -4.263 -4.261 -4.259 10.71324 19.93049 -3.74377
 3.44 7.50 -4.160 -4.159 -4.159 -4.157 -4.155 10.89204 20.18127 -3.49295
 3.44 7.75 -4.057 -4.057 -4.056 -4.055 -4.053 11.06342 20.43196 -3.24230
 3.44 8.00 -3.957 -3.957 -3.957 -3.955 -3.953 11.22814 20.68251 -2.99183
 3.46-2.00 -5.737 -5.733 -5.728 -5.717 -5.701  3.63979 10.39985-13.27450
 3.46-1.50 -5.792 -5.789 -5.781 -5.766 -5.744  3.92962 10.89988-12.77443
 3.46-1.00 -5.826 -5.820 -5.811 -5.792 -5.766  4.24822 11.39985-12.27442
 3.46-0.50 -5.828 -5.822 -5.810 -5.788 -5.759  4.61045 11.89988-11.77443
 3.46 0.00 -5.794 -5.788 -5.776 -5.752 -5.720  5.02408 12.39985-11.27442
 3.46 0.50 -5.729 -5.722 -5.711 -5.687 -5.656  5.47553 12.89998-10.77443
