 ROSSELAND MASS ABSORPTION COEFFICIENTS [-5.0]
 logT logP  0km/s  1km/s  2km/s  4km/s  8km/s  log Ne   log Na  log rho IPloCM-1
 3.32-2.00 -6.887 -6.886 -6.883 -6.879 -6.872  1.42619 10.54033-13.13395   0.001
 3.32-1.50 -6.894 -6.893 -6.890 -6.886 -6.879  1.82763 11.04139-12.63302   0.001
 3.32-1.00 -6.885 -6.883 -6.881 -6.876 -6.869  2.20112 11.54419-12.13024   0.001
 3.32-0.50 -6.855 -6.853 -6.851 -6.845 -6.838  2.55291 12.05231-11.62197   0.001
 3.32 0.00 -6.815 -6.813 -6.810 -6.805 -6.796  2.89905 12.57380-11.10062   0.001
 3.32 0.50 -6.786 -6.784 -6.781 -6.774 -6.765  3.26293 13.11494-10.55956   0.001
 3.32 1.00 -6.770 -6.768 -6.764 -6.757 -6.746  3.66633 13.66829-10.00603   0.001
 3.32 1.25 -6.762 -6.760 -6.756 -6.749 -6.738  3.88689 13.94330 -9.73096   0.001
 3.32 1.50 -6.752 -6.749 -6.746 -6.738 -6.727  4.11594 14.21643 -9.45780   0.001
 3.32 1.75 -6.737 -6.735 -6.731 -6.724 -6.712  4.35417 14.48542 -9.18895   0.001
 3.32 2.00 -6.719 -6.717 -6.713 -6.706 -6.694  4.59240 14.75113 -8.92336   0.001
 3.32 2.25 -6.696 -6.695 -6.691 -6.684 -6.673  4.82826 15.01336 -8.66105   0.001
 3.32 2.50 -6.670 -6.668 -6.665 -6.658 -6.647  5.06108 15.27300 -8.40132   0.002
 3.32 2.75 -6.639 -6.638 -6.635 -6.629 -6.619  5.28481 15.53044 -8.14382   0.002
 3.32 3.00 -6.605 -6.604 -6.601 -6.596 -6.587  5.50188 15.78618 -7.88807   0.003
 3.32 3.20 -6.575 -6.574 -6.572 -6.567 -6.558  5.67009 15.98972 -7.68460   0.004
 3.32 3.40 -6.542 -6.541 -6.540 -6.536 -6.528  5.83552 16.19260 -7.48177   0.005
 3.32 3.60 -6.509 -6.509 -6.507 -6.503 -6.497  5.99762 16.39489 -7.27951   0.006
 3.32 3.80 -6.476 -6.475 -6.474 -6.471 -6.464  6.15846 16.59677 -7.07764   0.007
 3.32 4.00 -6.441 -6.440 -6.439 -6.435 -6.429  6.31931 16.79824 -6.87615   0.008
 3.32 4.20 -6.406 -6.405 -6.404 -6.400 -6.394  6.48021 16.99933 -6.67499   0.009
 3.32 4.40 -6.369 -6.368 -6.367 -6.363 -6.356  6.64120 17.20022 -6.47405   0.011
 3.32 4.60 -6.330 -6.330 -6.328 -6.325 -6.318  6.80364 17.40096 -6.27331   0.013
 3.32 4.80 -6.291 -6.290 -6.289 -6.285 -6.278  6.96747 17.60159 -6.07271   0.016
 3.32 5.00 -6.251 -6.250 -6.249 -6.245 -6.238  7.13130 17.80209 -5.87225   0.019
 3.32 5.20 -6.210 -6.210 -6.208 -6.205 -6.198  7.29315 18.00238 -5.67192   0.023
 3.32 5.40 -6.169 -6.169 -6.167 -6.164 -6.158  7.45269 18.20264 -5.47163   0.027
 3.32 5.60 -6.127 -6.127 -6.125 -6.122 -6.116  7.60789 18.40289 -5.27138   0.033
 3.32 5.80 -6.082 -6.082 -6.081 -6.078 -6.072  7.75653 18.60312 -5.07115   0.039
 3.32 6.00 -6.033 -6.033 -6.032 -6.029 -6.024  7.89993 18.80332 -4.87096   0.046
 3.32 6.25 -5.962 -5.962 -5.960 -5.958 -5.953  8.07041 19.05350 -4.62087   0.056
 3.32 6.50 -5.876 -5.876 -5.875 -5.872 -5.868  8.23477 19.30363 -4.37080   0.068
 3.32 6.75 -5.772 -5.771 -5.770 -5.768 -5.765  8.39325 19.55368 -4.12071   0.082
 3.32 7.00 -5.677 -5.677 -5.676 -5.674 -5.671  8.55035 19.80373 -3.87063   0.098
 3.32 7.25 -5.593 -5.592 -5.591 -5.590 -5.587  8.70654 20.05379 -3.62060   0.118
 3.32 7.50 -5.502 -5.502 -5.501 -5.500 -5.498  8.86273 20.30384 -3.37059   0.141
 3.32 7.75 -5.407 -5.407 -5.407 -5.406 -5.404  9.02187 20.55387 -3.12060   0.169
 3.32 8.00 -5.310 -5.310 -5.310 -5.309 -5.308  9.18299 20.80387 -2.87063   0.203
 3.34-2.00 -6.793 -6.791 -6.788 -6.783 -6.775  1.52634 10.51996-13.15441   0.001
 3.34-1.50 -6.788 -6.786 -6.783 -6.778 -6.770  1.96960 11.02036-12.65404   0.001
 3.34-1.00 -6.766 -6.765 -6.762 -6.756 -6.748  2.39182 11.52114-12.15323   0.001
 3.34-0.50 -6.726 -6.724 -6.720 -6.714 -6.705  2.78767 12.02366-11.65053   0.001
 3.34 0.00 -6.678 -6.675 -6.672 -6.665 -6.654  3.15746 12.53199-11.14237   0.001
 3.34 0.50 -6.642 -6.640 -6.636 -6.628 -6.616  3.51215 13.05269-10.62160   0.001
 3.34 1.00 -6.625 -6.622 -6.618 -6.609 -6.597  3.86929 13.59329-10.08103   0.001
 3.34 1.25 -6.620 -6.618 -6.613 -6.604 -6.591  4.05482 13.87002 -9.80435   0.001
 3.34 1.50 -6.615 -6.612 -6.608 -6.599 -6.585  4.24674 14.14675 -9.52768   0.001
 3.34 1.75 -6.606 -6.604 -6.599 -6.590 -6.577  4.44833 14.42190 -9.25256   0.001
 3.34 2.00 -6.593 -6.591 -6.586 -6.578 -6.564  4.65877 14.69522 -8.97922   0.001
 3.34 2.25 -6.573 -6.571 -6.567 -6.559 -6.545  4.88052 14.96434 -8.71007   0.001
 3.34 2.50 -6.547 -6.545 -6.542 -6.534 -6.521  5.10721 15.23019 -8.44418   0.002
 3.34 2.75 -6.515 -6.514 -6.510 -6.503 -6.491  5.33823 15.49267 -8.18173   0.002
 3.34 3.00 -6.479 -6.478 -6.475 -6.468 -6.457  5.56926 15.75251 -7.92191   0.003
 3.34 3.20 -6.447 -6.446 -6.443 -6.438 -6.428  5.75002 15.95863 -7.71578   0.004
 3.34 3.40 -6.414 -6.413 -6.411 -6.406 -6.397  5.92769 16.16366 -7.51073   0.005
 3.34 3.60 -6.382 -6.381 -6.379 -6.375 -6.367  6.10130 16.36765 -7.30666   0.005
 3.34 3.80 -6.351 -6.350 -6.348 -6.344 -6.337  6.27074 16.57094 -7.10331   0.007
 3.34 4.00 -6.319 -6.319 -6.317 -6.313 -6.306  6.43696 16.77357 -6.90066   0.008
 3.34 4.20 -6.290 -6.290 -6.288 -6.284 -6.277  6.59975 16.97567 -6.69870   0.010
 3.34 4.40 -6.261 -6.260 -6.258 -6.255 -6.248  6.76117 17.17737 -6.49709   0.012
 3.34 4.60 -6.231 -6.230 -6.228 -6.225 -6.218  6.92110 17.37867 -6.29579   0.014
 3.34 4.80 -6.200 -6.199 -6.198 -6.194 -6.187  7.08057 17.57972 -6.09469   0.017
 3.34 5.00 -6.169 -6.168 -6.167 -6.163 -6.156  7.24005 17.78053 -5.89381   0.021
 3.34 5.20 -6.137 -6.137 -6.135 -6.132 -6.125  7.40117 17.98119 -5.69319   0.025
 3.34 5.40 -6.105 -6.104 -6.103 -6.100 -6.093  7.56230 18.18172 -5.49267   0.031
 3.34 5.60 -6.071 -6.071 -6.070 -6.066 -6.061  7.72322 18.38215 -5.29220   0.037
 3.34 5.80 -6.037 -6.036 -6.035 -6.032 -6.026  7.88319 18.58250 -5.09178   0.044
 3.34 6.00 -6.001 -6.000 -5.999 -5.996 -5.991  8.04218 18.78276 -4.89144   0.053
 3.34 6.25 -5.954 -5.953 -5.952 -5.949 -5.944  8.23242 19.03292 -4.64129   0.066
 3.34 6.50 -5.904 -5.904 -5.903 -5.900 -5.896  8.41531 19.28308 -4.39115   0.082
 3.34 6.75 -5.854 -5.853 -5.852 -5.850 -5.845  8.58852 19.53328 -4.14096   0.100
 3.34 7.00 -5.801 -5.801 -5.800 -5.797 -5.793  8.75496 19.78348 -3.89076   0.121
 3.34 7.25 -5.747 -5.747 -5.746 -5.744 -5.740  8.91473 20.03350 -3.64080   0.146
 3.34 7.50 -5.691 -5.691 -5.690 -5.688 -5.684  9.07188 20.28353 -3.39083   0.175
 3.34 7.75 -5.633 -5.632 -5.631 -5.630 -5.627  9.22780 20.53359 -3.14081   0.209
 3.34 8.00 -5.571 -5.571 -5.570 -5.569 -5.566  9.38202 20.78369 -2.89076   0.250
 3.36-2.00 -6.721 -6.719 -6.716 -6.710 -6.702  1.55823 10.49996-13.17444   0.001
 3.36-1.50 -6.706 -6.704 -6.701 -6.695 -6.686  2.03623 10.99996-12.67448   0.001
 3.36-1.00 -6.676 -6.674 -6.671 -6.664 -6.655  2.49554 11.50024-12.17406   0.001
 3.36-0.50 -6.628 -6.626 -6.622 -6.615 -6.605  2.93323 12.00130-11.67325   0.001
 3.36 0.00 -6.574 -6.572 -6.568 -6.559 -6.548  3.34889 12.50406-11.17031   0.001
 3.36 0.50 -6.528 -6.525 -6.520 -6.511 -6.498  3.73878 13.01242-10.66214   0.001
 3.36 1.00 -6.488 -6.485 -6.480 -6.470 -6.455  4.10823 13.53339-10.14092   0.001
 3.36 1.25 -6.471 -6.468 -6.463 -6.453 -6.437  4.28895 13.80201 -9.87237   0.001
 3.36 1.50 -6.457 -6.454 -6.449 -6.438 -6.422  4.46967 14.07445 -9.59998   0.001
 3.36 1.75 -6.445 -6.442 -6.436 -6.426 -6.409  4.65177 14.35116 -9.32323   0.001
 3.36 2.00 -6.432 -6.429 -6.424 -6.414 -6.397  4.83569 14.62788 -9.04648   0.001
 3.36 2.25 -6.417 -6.415 -6.410 -6.400 -6.383  5.02486 14.90292 -8.77142   0.001
 3.36 2.50 -6.399 -6.396 -6.392 -6.382 -6.367  5.21985 15.17609 -8.49826   0.002
 3.36 2.75 -6.374 -6.372 -6.368 -6.360 -6.345  5.42441 15.44513 -8.22917   0.002
 3.36 3.00 -6.344 -6.342 -6.339 -6.332 -6.319  5.63639 15.71088 -7.96337   0.003
 3.36 3.20 -6.316 -6.314 -6.312 -6.305 -6.294  5.81382 15.92086 -7.75338   0.004
 3.36 3.40 -6.285 -6.284 -6.282 -6.276 -6.266  5.99141 16.12919 -7.54506   0.004
 3.36 3.60 -6.255 -6.254 -6.252 -6.247 -6.239  6.16914 16.33597 -7.33840   0.006
 3.36 3.80 -6.226 -6.225 -6.223 -6.219 -6.211  6.34690 16.54158 -7.13292   0.007
 3.36 4.00 -6.197 -6.196 -6.195 -6.191 -6.183  6.52466 16.74609 -6.92849   0.009
 3.36 4.20 -6.171 -6.171 -6.169 -6.165 -6.158  6.69688 16.94956 -6.72488   0.011
 3.36 4.40 -6.146 -6.145 -6.144 -6.140 -6.133  6.86610 17.15240 -6.52191   0.014
 3.36 4.60 -6.121 -6.120 -6.119 -6.115 -6.108  7.03194 17.35467 -6.31956   0.017
 3.36 4.80 -6.095 -6.095 -6.093 -6.090 -6.083  7.19517 17.55657 -6.11764   0.020
 3.36 5.00 -6.069 -6.069 -6.067 -6.064 -6.057  7.35641 17.75808 -5.91614   0.024
 3.36 5.20 -6.042 -6.042 -6.041 -6.037 -6.031  7.51537 17.95923 -5.71504   0.029
 3.36 5.40 -6.014 -6.014 -6.012 -6.009 -6.003  7.67433 18.16016 -5.51413   0.034
 3.36 5.60 -5.984 -5.984 -5.982 -5.979 -5.974  7.83332 18.36091 -5.31337   0.041
 3.36 5.80 -5.952 -5.951 -5.950 -5.947 -5.942  7.99235 18.56153 -5.11272   0.049
 3.36 6.00 -5.916 -5.915 -5.914 -5.911 -5.906  8.15137 18.76200 -4.91222   0.059
 3.36 6.25 -5.867 -5.866 -5.865 -5.863 -5.858  8.34964 19.01237 -4.66189   0.074
 3.36 6.50 -5.813 -5.813 -5.812 -5.809 -5.805  8.54704 19.26269 -4.41162   0.093
 3.36 6.75 -5.756 -5.755 -5.754 -5.752 -5.748  8.73766 19.51300 -4.16136   0.116
 3.36 7.00 -5.696 -5.696 -5.695 -5.693 -5.689  8.92195 19.76328 -3.91116   0.144
 3.36 7.25 -5.635 -5.635 -5.634 -5.632 -5.629  9.09663 20.01334 -3.66104   0.176
 3.36 7.50 -5.574 -5.573 -5.573 -5.571 -5.568  9.26435 20.26340 -3.41094   0.213
 3.36 7.75 -5.511 -5.511 -5.510 -5.509 -5.506  9.42637 20.51351 -3.16086   0.257
 3.36 8.00 -5.447 -5.446 -5.446 -5.445 -5.443  9.58229 20.76365 -2.91080   0.307
 3.38-2.00 -6.644 -6.642 -6.639 -6.633 -6.625  1.60617 10.47986-13.19450   0.001
 3.38-1.50 -6.637 -6.635 -6.632 -6.625 -6.616  2.06371 10.97987-12.69443   0.001
 3.38-1.00 -6.604 -6.602 -6.598 -6.592 -6.582  2.53857 11.48001-12.19436   0.001
 3.38-0.50 -6.551 -6.549 -6.545 -6.537 -6.526  3.00860 11.98028-11.69400   0.001
 3.38 0.00 -6.493 -6.491 -6.486 -6.477 -6.464  3.46000 12.48130-11.19308   0.001
 3.38 0.50 -6.436 -6.433 -6.428 -6.418 -6.403  3.89076 12.98430-10.69016   0.001
 3.38 1.00 -6.373 -6.370 -6.364 -6.352 -6.335  4.29973 13.49318-10.18125   0.001
 3.38 1.25 -6.341 -6.337 -6.331 -6.319 -6.301  4.49553 13.75227 -9.92211   0.001
 3.38 1.50 -6.310 -6.307 -6.301 -6.288 -6.269  4.68690 14.01536 -9.65896   0.001
 3.38 1.75 -6.283 -6.280 -6.273 -6.261 -6.241  4.87432 14.28468 -9.38965   0.001
 3.38 2.00 -6.261 -6.257 -6.251 -6.238 -6.219  5.05919 14.55763 -9.11674   0.002
 3.38 2.25 -6.241 -6.238 -6.232 -6.220 -6.201  5.24146 14.83445 -8.83997   0.003
 3.38 2.50 -6.223 -6.221 -6.215 -6.204 -6.186  5.42374 15.11126 -8.56320   0.003
 3.38 2.75 -6.204 -6.202 -6.198 -6.188 -6.171  5.60683 15.38608 -8.28835   0.003
 3.38 3.00 -6.184 -6.182 -6.178 -6.170 -6.155  5.79120 15.65877 -8.01556   0.004
 3.38 3.20 -6.164 -6.163 -6.160 -6.153 -6.140  5.94355 15.87386 -7.80052   0.005
 3.38 3.40 -6.143 -6.142 -6.140 -6.134 -6.123  6.09989 16.08685 -7.58757   0.005
 3.38 3.60 -6.122 -6.121 -6.119 -6.114 -6.105  6.26179 16.29765 -7.37682   0.007
 3.38 3.80 -6.101 -6.100 -6.098 -6.094 -6.086  6.42867 16.50660 -7.16790   0.008
 3.38 4.00 -6.078 -6.078 -6.076 -6.072 -6.065  6.59879 16.71391 -6.96059   0.010
 3.38 4.20 -6.058 -6.058 -6.056 -6.052 -6.045  6.77248 16.91977 -6.75462   0.012
 3.38 4.40 -6.037 -6.037 -6.035 -6.032 -6.025  6.94618 17.12458 -6.54974   0.015
 3.38 4.60 -6.016 -6.015 -6.013 -6.010 -6.003  7.11891 17.32842 -6.34594   0.018
 3.38 4.80 -5.993 -5.992 -5.991 -5.988 -5.981  7.28923 17.53157 -6.14289   0.021
 3.38 5.00 -5.970 -5.969 -5.968 -5.964 -5.958  7.45758 17.73408 -5.94044   0.026
 3.38 5.20 -5.945 -5.944 -5.943 -5.940 -5.934  7.62229 17.93605 -5.73840   0.032
 3.38 5.40 -5.918 -5.918 -5.917 -5.914 -5.908  7.78492 18.13764 -5.53673   0.038
 3.38 5.60 -5.890 -5.889 -5.888 -5.885 -5.880  7.94534 18.33888 -5.33546   0.046
 3.38 5.80 -5.858 -5.858 -5.857 -5.854 -5.849  8.10445 18.53988 -5.13445   0.055
 3.38 6.00 -5.824 -5.823 -5.822 -5.819 -5.815  8.26269 18.74068 -4.93367   0.066
 3.38 6.25 -5.776 -5.776 -5.775 -5.772 -5.767  8.45984 18.99146 -4.68297   0.082
 3.38 6.50 -5.723 -5.722 -5.721 -5.719 -5.715  8.65629 19.24205 -4.43239   0.103
 3.38 6.75 -5.664 -5.664 -5.663 -5.660 -5.656  8.85247 19.49247 -4.18186   0.129
 3.38 7.00 -5.600 -5.600 -5.599 -5.597 -5.594  9.04766 19.74280 -3.93144   0.162
 3.38 7.25 -5.533 -5.533 -5.532 -5.530 -5.528  9.23749 19.99308 -3.68127   0.202
 3.38 7.50 -5.464 -5.464 -5.463 -5.462 -5.459  9.42177 20.24329 -3.43109   0.250
 3.38 7.75 -5.394 -5.393 -5.393 -5.392 -5.390  9.59721 20.49343 -3.18090   0.306
 3.38 8.00 -5.322 -5.322 -5.321 -5.320 -5.319  9.76492 20.74351 -2.93070   0.371
 3.40-2.00 -6.491 -6.489 -6.486 -6.481 -6.473  1.92412 10.45984-13.21446   0.001
 3.40-1.50 -6.522 -6.520 -6.517 -6.510 -6.501  2.25575 10.95985-12.71444   0.001
 3.40-1.00 -6.519 -6.517 -6.514 -6.506 -6.496  2.63518 11.46000-12.21446   0.001
 3.40-0.50 -6.481 -6.478 -6.474 -6.465 -6.454  3.06371 11.96000-11.71444   0.001
 3.40 0.00 -6.424 -6.421 -6.416 -6.406 -6.393  3.52035 12.46045-11.21396   0.001
 3.40 0.50 -6.361 -6.357 -6.352 -6.340 -6.324  3.97750 12.96147-10.71287   0.001
 3.40 1.00 -6.283 -6.279 -6.272 -6.260 -6.241  4.41946 13.46494-10.20950   0.001
 3.40 1.25 -6.239 -6.235 -6.228 -6.215 -6.194  4.63385 13.71868 -9.95577   0.001
 3.40 1.50 -6.195 -6.191 -6.184 -6.170 -6.148  4.84367 13.97460 -9.69984   0.001
 3.40 1.75 -6.153 -6.149 -6.142 -6.128 -6.106  5.04866 14.23463 -9.43976   0.001
 3.40 2.00 -6.115 -6.112 -6.105 -6.091 -6.069  5.24895 14.49886 -9.17548   0.002
 3.40 2.25 -6.083 -6.079 -6.073 -6.060 -6.039  5.44455 14.76929 -8.90515   0.002
 3.40 2.50 -6.056 -6.053 -6.048 -6.036 -6.017  5.63558 15.04297 -8.63153   0.003
 3.40 2.75 -6.034 -6.032 -6.027 -6.017 -6.000  5.82152 15.31984 -8.35461   0.004
 3.40 3.00 -6.015 -6.013 -6.010 -6.001 -5.987  6.00432 15.59671 -8.07769   0.005
 3.40 3.20 -6.001 -5.999 -5.996 -5.989 -5.977  6.14796 15.81640 -7.85803   0.006
 3.40 3.40 -5.987 -5.986 -5.983 -5.978 -5.968  6.29160 16.03453 -7.63995   0.007
 3.40 3.60 -5.975 -5.974 -5.972 -5.967 -5.958  6.43595 16.25051 -7.42400   0.008
 3.40 3.80 -5.963 -5.962 -5.960 -5.956 -5.949  6.58259 16.46395 -7.21053   0.009
 3.40 4.00 -5.950 -5.949 -5.948 -5.944 -5.937  6.73135 16.67532 -6.99913   0.011
 3.40 4.20 -5.938 -5.938 -5.936 -5.933 -5.926  6.88599 16.88462 -6.78987   0.013
 3.40 4.40 -5.924 -5.924 -5.922 -5.919 -5.913  7.04465 17.09235 -6.58215   0.016
 3.40 4.60 -5.908 -5.907 -5.906 -5.903 -5.897  7.20903 17.29854 -6.37588   0.019
 3.40 4.80 -5.889 -5.889 -5.887 -5.884 -5.878  7.37627 17.50360 -6.17071   0.023
 3.40 5.00 -5.868 -5.867 -5.866 -5.863 -5.857  7.54370 17.70766 -5.96658   0.028
 3.40 5.20 -5.844 -5.844 -5.842 -5.839 -5.834  7.71122 17.91086 -5.76342   0.034
 3.40 5.40 -5.818 -5.818 -5.816 -5.813 -5.808  7.87875 18.11349 -5.56085   0.041
 3.40 5.60 -5.790 -5.789 -5.788 -5.785 -5.780  8.04471 18.31558 -5.35885   0.050
 3.40 5.80 -5.758 -5.758 -5.757 -5.754 -5.749  8.20777 18.51730 -5.15719   0.060
 3.40 6.00 -5.724 -5.723 -5.722 -5.720 -5.715  8.36903 18.71867 -4.95585   0.073
 3.40 6.25 -5.677 -5.676 -5.675 -5.673 -5.668  8.56804 18.96994 -4.70448   0.092
 3.40 6.50 -5.625 -5.624 -5.623 -5.621 -5.617  8.76530 19.22089 -4.45346   0.115
 3.40 6.75 -5.567 -5.567 -5.566 -5.563 -5.560  8.96133 19.47159 -4.20284   0.144
 3.40 7.00 -5.504 -5.504 -5.503 -5.501 -5.498  9.15625 19.72214 -3.95234   0.180
 3.40 7.25 -5.435 -5.435 -5.434 -5.433 -5.430  9.35057 19.97262 -3.70187   0.225
 3.40 7.50 -5.361 -5.361 -5.360 -5.359 -5.357  9.54332 20.22298 -3.45149   0.281
 3.40 7.75 -5.283 -5.283 -5.283 -5.282 -5.280  9.73074 20.47320 -3.20126   0.348
 3.40 8.00 -5.202 -5.202 -5.201 -5.201 -5.200  9.91408 20.72329 -2.95117   0.430
 3.42-2.00 -6.282 -6.281 -6.278 -6.274 -6.268  2.45591 10.43996-13.23441   0.001
 3.42-1.50 -6.336 -6.335 -6.332 -6.327 -6.319  2.72591 10.93992-12.73448   0.001
 3.42-1.00 -6.368 -6.366 -6.363 -6.356 -6.346  3.01115 11.43996-12.23441   0.001
 3.42-0.50 -6.368 -6.366 -6.361 -6.353 -6.342  3.32222 11.93997-11.73448   0.001
 3.42 0.00 -6.339 -6.336 -6.331 -6.321 -6.307  3.67256 12.44012-11.23426   0.001
 3.42 0.50 -6.285 -6.282 -6.276 -6.264 -6.247  4.07041 12.94052-10.73377   0.001
 3.42 1.00 -6.204 -6.201 -6.194 -6.180 -6.160  4.50325 13.44185-10.23255   0.001
 3.42 1.25 -6.156 -6.152 -6.145 -6.130 -6.109  4.72349 13.69333 -9.98108   0.001
 3.42 1.50 -6.106 -6.102 -6.094 -6.079 -6.056  4.94374 13.94576 -9.72862   0.001
 3.42 1.75 -6.055 -6.051 -6.044 -6.028 -6.005  5.16135 14.20019 -9.47419   0.001
 3.42 2.00 -6.006 -6.002 -5.995 -5.981 -5.958  5.37658 14.45713 -9.21724   0.002
 3.42 2.25 -5.961 -5.958 -5.951 -5.938 -5.916  5.58863 14.71841 -8.95598   0.003
 3.42 2.50 -5.922 -5.919 -5.913 -5.902 -5.883  5.79692 14.98403 -8.69037   0.004
 3.42 2.75 -5.889 -5.887 -5.883 -5.873 -5.857  6.00036 15.25601 -8.41834   0.005
 3.42 3.00 -5.864 -5.862 -5.859 -5.851 -5.838  6.19838 15.53058 -8.14375   0.006
 3.42 3.20 -5.848 -5.847 -5.844 -5.837 -5.827  6.35152 15.75204 -7.92235   0.007
 3.42 3.40 -5.835 -5.834 -5.831 -5.826 -5.817  6.50106 15.97349 -7.70094   0.008
 3.42 3.60 -5.824 -5.824 -5.822 -5.817 -5.810  6.64596 16.19399 -7.48047   0.010
 3.42 3.80 -5.816 -5.815 -5.813 -5.810 -5.803  6.78850 16.41218 -7.26225   0.012
 3.42 4.00 -5.807 -5.806 -5.805 -5.802 -5.796  6.93054 16.62859 -7.04581   0.014
 3.42 4.20 -5.800 -5.799 -5.798 -5.795 -5.789  7.07228 16.84226 -6.83213   0.016
 3.42 4.40 -5.791 -5.791 -5.789 -5.786 -5.781  7.21401 17.05390 -6.62048   0.019
 3.42 4.60 -5.781 -5.780 -5.779 -5.776 -5.770  7.35780 17.26347 -6.41090   0.022
 3.42 4.80 -5.767 -5.767 -5.765 -5.762 -5.757  7.50625 17.47137 -6.20297   0.026
 3.42 5.00 -5.751 -5.750 -5.749 -5.746 -5.741  7.65820 17.67779 -5.99654   0.031
 3.42 5.20 -5.731 -5.730 -5.729 -5.726 -5.721  7.81619 17.88294 -5.79143   0.038
 3.42 5.40 -5.707 -5.707 -5.705 -5.703 -5.698  7.97638 18.08717 -5.58722   0.045
 3.42 5.60 -5.680 -5.680 -5.678 -5.676 -5.671  8.13896 18.29051 -5.38383   0.055
 3.42 5.80 -5.650 -5.649 -5.648 -5.646 -5.641  8.30232 18.49324 -5.18102   0.066
 3.42 6.00 -5.616 -5.616 -5.615 -5.612 -5.608  8.46568 18.69539 -4.97881   0.079
 3.42 6.25 -5.570 -5.569 -5.568 -5.566 -5.562  8.66743 18.94738 -4.72686   0.100
 3.42 6.50 -5.518 -5.518 -5.517 -5.515 -5.511  8.86741 19.19893 -4.47534   0.126
 3.42 6.75 -5.462 -5.461 -5.460 -5.458 -5.455  9.06526 19.45024 -4.22405   0.158
 3.42 7.00 -5.399 -5.398 -5.398 -5.396 -5.393  9.26150 19.70122 -3.97306   0.198
 3.42 7.25 -5.330 -5.330 -5.329 -5.328 -5.326  9.45650 19.95176 -3.72243   0.248
 3.42 7.50 -5.255 -5.255 -5.254 -5.253 -5.252  9.65002 20.20222 -3.47198   0.310
 3.42 7.75 -5.173 -5.173 -5.172 -5.172 -5.171  9.84191 20.45265 -3.22164   0.387
 3.42 8.00 -5.085 -5.085 -5.085 -5.084 -5.084 10.03222 20.70303 -2.97143   0.481
 3.44-2.00 -6.044 -6.043 -6.042 -6.040 -6.037  3.02776 10.41996-13.25446   0.001
 3.44-1.50 -6.117 -6.116 -6.115 -6.111 -6.106  3.28285 10.91991-12.75449   0.001
 3.44-1.00 -6.173 -6.172 -6.169 -6.165 -6.157  3.54158 11.41996-12.25446   0.001
 3.44-0.50 -6.202 -6.200 -6.197 -6.190 -6.180  3.80699 11.91991-11.75449   0.001
 3.44 0.00 -6.199 -6.196 -6.192 -6.183 -6.170  4.08422 12.41996-11.25438   0.001
 3.44 0.50 -6.164 -6.161 -6.155 -6.143 -6.126  4.38148 12.92012-10.75424   0.001
 3.44 1.00 -6.101 -6.097 -6.090 -6.075 -6.055  4.71020 13.42062-10.25368   0.001
 3.44 1.25 -6.060 -6.056 -6.049 -6.033 -6.011  4.89040 13.67120-10.00305   0.001
 3.44 1.50 -6.015 -6.011 -6.003 -5.987 -5.963  5.08027 13.92221 -9.75203   0.002
 3.44 1.75 -5.967 -5.963 -5.955 -5.939 -5.915  5.28053 14.17408 -9.50021   0.003
 3.44 2.00 -5.916 -5.913 -5.905 -5.890 -5.867  5.48671 14.42716 -9.24726   0.003
 3.44 2.25 -5.866 -5.863 -5.857 -5.844 -5.823  5.69805 14.68240 -8.99206   0.003
 3.44 2.50 -5.819 -5.817 -5.812 -5.800 -5.783  5.91068 14.94047 -8.73400   0.004
 3.44 2.75 -5.777 -5.775 -5.771 -5.762 -5.747  6.12417 15.20356 -8.47088   0.005
 3.44 3.00 -5.741 -5.739 -5.736 -5.729 -5.718  6.33766 15.47114 -8.20329   0.007
 3.44 3.20 -5.716 -5.715 -5.713 -5.707 -5.698  6.50518 15.69014 -7.98443   0.008
 3.44 3.40 -5.696 -5.695 -5.693 -5.688 -5.681  6.66969 15.91006 -7.76455   0.010
