
 ROSSELAND MASS ABSORPTION COEFFICENTS
 logT logP  0km/s  1km/s  2km/s  4km/s  8km/s  log Ne   log Na  log rho IPloCM-1
 3.32-2.00 -5.231 -5.219 -5.201 -5.171 -5.137  5.20737 10.54008-13.12755
 3.32-1.50 -5.261 -5.248 -5.229 -5.198 -5.161  5.63084 11.04100-12.62672
 3.32-1.00 -5.303 -5.290 -5.268 -5.236 -5.200  6.03822 11.54382-12.12378
 3.32-0.50 -5.345 -5.330 -5.309 -5.277 -5.240  6.44279 12.05192-11.61547
 3.32 0.00 -5.370 -5.356 -5.334 -5.302 -5.264  6.86338 12.57345-11.09415
 3.32 0.50 -5.371 -5.356 -5.335 -5.302 -5.266  7.30492 13.11461-10.55300
 3.32 1.00 -5.361 -5.345 -5.324 -5.292 -5.254  7.73231 13.66811 -9.99957
 3.32 1.25 -5.352 -5.337 -5.317 -5.285 -5.247  7.92804 13.94310 -9.72452
 3.32 1.50 -5.344 -5.329 -5.308 -5.276 -5.240  8.11327 14.21617 -9.45136
 3.32 1.75 -5.332 -5.317 -5.297 -5.266 -5.231  8.28750 14.48512 -9.18247
 3.32 2.00 -5.316 -5.302 -5.282 -5.252 -5.218  8.45591 14.75082 -8.91686
 3.32 2.25 -5.293 -5.280 -5.262 -5.234 -5.201  8.61887 15.01310 -8.65459
 3.32 2.50 -5.267 -5.253 -5.236 -5.210 -5.177  8.78183 15.27277 -8.39491
 3.32 2.75 -5.232 -5.220 -5.202 -5.177 -5.147  8.94502 15.53018 -8.13748
 3.32 3.00 -5.190 -5.178 -5.162 -5.139 -5.109  9.10857 15.78590 -7.88174
 3.32 3.20 -5.148 -5.137 -5.122 -5.101 -5.073  9.24163 15.98947 -7.67818
 3.32 3.40 -5.102 -5.092 -5.078 -5.057 -5.031  9.37469 16.19238 -7.47528
 3.32 3.60 -5.049 -5.040 -5.027 -5.008 -4.984  9.50737 16.39463 -7.27299
 3.32 3.80 -4.990 -4.982 -4.971 -4.953 -4.930  9.63872 16.59645 -7.07113
 3.32 4.00 -4.926 -4.919 -4.910 -4.893 -4.872  9.76879 16.79789 -6.86967
 3.32 4.20 -4.865 -4.858 -4.849 -4.833 -4.811  9.89484 16.99905 -6.66854
 3.32 4.40 -4.797 -4.792 -4.782 -4.766 -4.745 10.01779 17.19999 -6.46762
 3.32 4.60 -4.727 -4.721 -4.712 -4.696 -4.676 10.13721 17.40073 -6.26690
 3.32 4.80 -4.653 -4.646 -4.637 -4.622 -4.601 10.25331 17.60134 -6.06630
 3.32 5.00 -4.571 -4.564 -4.555 -4.540 -4.519 10.36661 17.80182 -5.86582
 3.32 5.20 -4.479 -4.474 -4.465 -4.451 -4.430 10.47735 18.00215 -5.66545
 3.32 5.40 -4.379 -4.373 -4.365 -4.351 -4.330 10.58618 18.20243 -5.46515
 3.32 5.60 -4.265 -4.260 -4.253 -4.238 -4.219 10.69318 18.40267 -5.26490
 3.32 5.80 -4.135 -4.130 -4.123 -4.111 -4.092 10.79888 18.60288 -5.06470
 3.32 6.00 -3.986 -3.982 -3.976 -3.964 -3.947 10.90342 18.80305 -4.86455
 3.32 6.25 -3.767 -3.764 -3.759 -3.748 -3.734 11.03281 19.05312 -4.61441
 3.32 6.50 -3.502 -3.498 -3.495 -3.486 -3.474 11.16107 19.30320 -4.36432
 3.32 6.75 -3.179 -3.177 -3.174 -3.168 -3.158 11.28837 19.55329 -4.11427
 3.32 7.00 -2.974 -2.972 -2.970 -2.964 -2.957 11.41497 19.80339 -3.86423
 3.32 7.25 -2.864 -2.863 -2.860 -2.855 -2.849 11.54113 20.05340 -3.61418
 3.32 7.50 -2.760 -2.758 -2.756 -2.751 -2.745 11.66671 20.30341 -3.36411
 3.32 7.75 -2.658 -2.657 -2.655 -2.651 -2.645 11.79161 20.55346 -3.11403
 3.32 8.00 -2.561 -2.559 -2.557 -2.553 -2.549 11.91587 20.80353 -2.86391
 3.34-2.00 -5.162 -5.153 -5.136 -5.109 -5.074  5.27370 10.51970-13.14795
 3.34-1.50 -5.176 -5.165 -5.146 -5.115 -5.078  5.71700 11.01995-12.64762
 3.34-1.00 -5.195 -5.181 -5.161 -5.128 -5.089  6.14706 11.52088-12.14679
 3.34-0.50 -5.220 -5.205 -5.182 -5.148 -5.107  6.55979 12.02366-11.64397
 3.34 0.00 -5.238 -5.222 -5.198 -5.163 -5.122  6.96511 12.53161-11.13596
 3.34 0.50 -5.229 -5.212 -5.189 -5.153 -5.112  7.37949 13.05231-10.61529
 3.34 1.00 -5.183 -5.166 -5.142 -5.106 -5.066  7.81471 13.59306-10.07453
 3.34 1.25 -5.150 -5.134 -5.110 -5.075 -5.033  8.03082 13.86975 -9.79791
 3.34 1.50 -5.117 -5.101 -5.078 -5.043 -5.003  8.24452 14.14644 -9.52129
 3.34 1.75 -5.085 -5.069 -5.046 -5.011 -4.972  8.44358 14.42159 -9.24611
 3.34 2.00 -5.054 -5.038 -5.016 -4.984 -4.945  8.63215 14.69496 -8.97265
 3.34 2.25 -5.023 -5.007 -4.986 -4.955 -4.918  8.80856 14.96409 -8.70354
 3.34 2.50 -4.993 -4.977 -4.957 -4.927 -4.892  8.97804 15.22994 -8.43771
 3.34 2.75 -4.958 -4.944 -4.924 -4.896 -4.862  9.14126 15.49238 -8.17526
 3.34 3.00 -4.920 -4.906 -4.887 -4.861 -4.829  9.30320 15.75220 -7.91543
 3.34 3.20 -4.884 -4.871 -4.853 -4.828 -4.798  9.43208 15.95836 -7.70925
 3.34 3.40 -4.843 -4.832 -4.815 -4.792 -4.762  9.56097 16.16341 -7.50420
 3.34 3.60 -4.797 -4.786 -4.772 -4.750 -4.722  9.69061 16.36741 -7.30025
 3.34 3.80 -4.745 -4.735 -4.722 -4.702 -4.676  9.82100 16.57068 -7.09705
 3.34 4.00 -4.686 -4.679 -4.668 -4.649 -4.625  9.95139 16.77328 -6.89449
 3.34 4.20 -4.632 -4.625 -4.615 -4.597 -4.573 10.08091 16.97528 -6.69240
 3.34 4.40 -4.575 -4.568 -4.557 -4.540 -4.517 10.20939 17.17692 -6.49069
 3.34 4.60 -4.516 -4.509 -4.499 -4.483 -4.460 10.33578 17.37825 -6.28935
 3.34 4.80 -4.457 -4.450 -4.441 -4.424 -4.401 10.45882 17.57936 -6.08826
 3.34 5.00 -4.395 -4.389 -4.379 -4.364 -4.340 10.57910 17.78025 -5.88739
 3.34 5.20 -4.333 -4.327 -4.318 -4.302 -4.280 10.69594 17.98094 -5.68673
 3.34 5.40 -4.268 -4.263 -4.254 -4.239 -4.217 10.81016 18.18149 -5.48618
 3.34 5.60 -4.203 -4.197 -4.189 -4.174 -4.152 10.92175 18.38191 -5.28573
 3.34 5.80 -4.135 -4.130 -4.122 -4.108 -4.085 11.03127 18.58223 -5.08535
 3.34 6.00 -4.066 -4.062 -4.054 -4.040 -4.019 11.13893 18.78247 -4.88506
 3.34 6.25 -3.979 -3.974 -3.967 -3.954 -3.934 11.27131 19.03267 -4.63485
 3.34 6.50 -3.890 -3.885 -3.878 -3.866 -3.847 11.40192 19.28285 -4.38468
 3.34 6.75 -3.800 -3.796 -3.789 -3.777 -3.760 11.53120 19.53303 -4.13452
 3.34 7.00 -3.710 -3.706 -3.700 -3.688 -3.671 11.65935 19.78319 -3.88439
 3.34 7.25 -3.620 -3.617 -3.610 -3.600 -3.584 11.78655 20.03325 -3.63438
 3.34 7.50 -3.530 -3.527 -3.521 -3.510 -3.496 11.91291 20.28330 -3.38437
 3.34 7.75 -3.441 -3.437 -3.431 -3.422 -3.408 12.03856 20.53335 -3.13425
 3.34 8.00 -3.351 -3.347 -3.342 -3.333 -3.321 12.16346 20.78340 -2.88406
 3.36-2.00 -5.070 -5.061 -5.045 -5.019 -4.985  5.38739 10.49955-13.16800
 3.36-1.50 -5.106 -5.096 -5.078 -5.050 -5.014  5.79323 10.99965-12.66797
 3.36-1.00 -5.118 -5.106 -5.088 -5.056 -5.016  6.22583 11.49996-12.16762
 3.36-0.50 -5.122 -5.109 -5.087 -5.052 -5.010  6.65725 12.00087-11.66675
 3.36 0.00 -5.121 -5.104 -5.081 -5.043 -5.000  7.07408 12.50365-11.16387
 3.36 0.50 -5.097 -5.080 -5.054 -5.015 -4.970  7.48173 13.01199-10.65561
 3.36 1.00 -5.033 -5.014 -4.988 -4.949 -4.904  7.89382 13.53314-10.13448
 3.36 1.25 -4.984 -4.965 -4.939 -4.901 -4.857  8.10864 13.80169 -9.86588
 3.36 1.50 -4.927 -4.909 -4.883 -4.845 -4.801  8.32346 14.07408 -9.59346
 3.36 1.75 -4.866 -4.848 -4.823 -4.786 -4.744  8.53809 14.35083 -9.31673
 3.36 2.00 -4.807 -4.789 -4.765 -4.729 -4.688  8.75236 14.62757 -9.04001
 3.36 2.25 -4.751 -4.734 -4.710 -4.675 -4.637  8.95258 14.90263 -8.76493
 3.36 2.50 -4.700 -4.684 -4.661 -4.628 -4.590  9.14270 15.17580 -8.49174
 3.36 2.75 -4.653 -4.636 -4.615 -4.584 -4.548  9.32046 15.44481 -8.22274
 3.36 3.00 -4.607 -4.592 -4.572 -4.543 -4.508  9.49066 15.71054 -7.95703
 3.36 3.20 -4.569 -4.556 -4.536 -4.509 -4.476  9.62154 15.92056 -7.74701
 3.36 3.40 -4.530 -4.517 -4.500 -4.474 -4.442  9.75096 16.12893 -7.53865
 3.36 3.60 -4.487 -4.476 -4.460 -4.436 -4.405  9.87886 16.33570 -7.33192
 3.36 3.80 -4.439 -4.430 -4.416 -4.394 -4.366 10.00636 16.54129 -7.12637
 3.36 4.00 -4.387 -4.380 -4.368 -4.349 -4.323 10.13386 16.74578 -6.92191
 3.36 4.20 -4.339 -4.332 -4.321 -4.302 -4.276 10.26189 16.94929 -6.71834
 3.36 4.40 -4.286 -4.279 -4.268 -4.250 -4.227 10.38992 17.15215 -6.51542
 3.36 4.60 -4.231 -4.224 -4.214 -4.198 -4.174 10.51764 17.35441 -6.31311
 3.36 4.80 -4.174 -4.168 -4.158 -4.142 -4.119 10.64431 17.55629 -6.11122
 3.36 5.00 -4.115 -4.109 -4.100 -4.084 -4.061 10.76997 17.75778 -5.90974
 3.36 5.20 -4.054 -4.049 -4.040 -4.024 -4.002 10.89246 17.95896 -5.70865
 3.36 5.40 -3.990 -3.985 -3.977 -3.962 -3.940 11.01245 18.15992 -5.50775
 3.36 5.60 -3.925 -3.920 -3.912 -3.898 -3.877 11.12966 18.36065 -5.30701
 3.36 5.80 -3.859 -3.853 -3.846 -3.832 -3.812 11.24414 18.56124 -5.10638
 3.36 6.00 -3.790 -3.786 -3.779 -3.765 -3.746 11.35622 18.76170 -4.90588
 3.36 6.25 -3.702 -3.699 -3.692 -3.680 -3.661 11.49313 19.01213 -4.65546
 3.36 6.50 -3.615 -3.610 -3.604 -3.593 -3.576 11.62737 19.26245 -4.40517
 3.36 6.75 -3.525 -3.522 -3.516 -3.505 -3.489 11.75938 19.51271 -4.15500
 3.36 7.00 -3.436 -3.432 -3.427 -3.417 -3.402 11.88964 19.76291 -3.90483
 3.36 7.25 -3.345 -3.343 -3.338 -3.328 -3.314 12.01847 20.01305 -3.65461
 3.36 7.50 -3.257 -3.253 -3.248 -3.240 -3.227 12.14613 20.26316 -3.40439
 3.36 7.75 -3.168 -3.165 -3.160 -3.152 -3.141 12.27288 20.51327 -3.15424
 3.36 8.00 -3.079 -3.076 -3.072 -3.065 -3.054 12.39863 20.76335 -2.90413
 3.38-2.00 -4.910 -4.902 -4.887 -4.863 -4.830  5.60086 10.47958-13.18802
 3.38-1.50 -4.990 -4.981 -4.965 -4.938 -4.902  5.94606 10.97955-12.68804
 3.38-1.00 -5.038 -5.027 -5.009 -4.978 -4.940  6.32490 11.47972-12.18789
 3.38-0.50 -5.049 -5.037 -5.016 -4.983 -4.941  6.73838 11.97996-11.68761
 3.38 0.00 -5.032 -5.018 -4.995 -4.958 -4.913  7.16495 12.48101-11.18662
 3.38 0.50 -4.988 -4.971 -4.946 -4.907 -4.859  7.58365 12.98394-10.68361
 3.38 1.00 -4.901 -4.883 -4.856 -4.814 -4.766  7.99357 13.49276-10.17477
 3.38 1.25 -4.839 -4.820 -4.793 -4.753 -4.705  8.19905 13.75184 -9.91563
 3.38 1.50 -4.766 -4.746 -4.719 -4.678 -4.632  8.40535 14.01494 -9.65248
 3.38 1.75 -4.683 -4.665 -4.638 -4.599 -4.553  8.61820 14.28429 -9.38320
 3.38 2.00 -4.597 -4.578 -4.552 -4.514 -4.470  8.83110 14.55727 -9.11031
 3.38 2.25 -4.510 -4.492 -4.467 -4.431 -4.389  9.04403 14.83410 -8.83352
 3.38 2.50 -4.429 -4.411 -4.388 -4.353 -4.313  9.25696 15.11093 -8.55674
 3.38 2.75 -4.354 -4.338 -4.316 -4.284 -4.246  9.45702 15.38576 -8.28187
 3.38 3.00 -4.288 -4.274 -4.253 -4.223 -4.187  9.64748 15.65849 -8.00908
 3.38 3.20 -4.239 -4.226 -4.207 -4.179 -4.144  9.79059 15.87358 -7.79402
 3.38 3.40 -4.193 -4.181 -4.164 -4.138 -4.105  9.92869 16.08658 -7.58105
 3.38 3.60 -4.148 -4.137 -4.122 -4.098 -4.067 10.06152 16.29736 -7.37023
 3.38 3.80 -4.102 -4.093 -4.080 -4.058 -4.029 10.19138 16.50628 -7.16124
 3.38 4.00 -4.055 -4.047 -4.036 -4.017 -3.990 10.31931 16.71358 -6.95390
 3.38 4.20 -4.012 -4.005 -3.995 -3.976 -3.951 10.44561 16.91947 -6.74809
 3.38 4.40 -3.966 -3.960 -3.950 -3.932 -3.908 10.57176 17.12432 -6.54330
 3.38 4.60 -3.918 -3.912 -3.904 -3.887 -3.864 10.69785 17.32814 -6.33943
 3.38 4.80 -3.870 -3.864 -3.855 -3.839 -3.816 10.82388 17.53127 -6.13622
 3.38 5.00 -3.817 -3.812 -3.803 -3.787 -3.765 10.94978 17.73376 -5.93368
 3.38 5.20 -3.760 -3.756 -3.748 -3.733 -3.711 11.07466 17.93576 -5.73181
 3.38 5.40 -3.701 -3.697 -3.690 -3.675 -3.655 11.19840 18.13738 -5.53031
 3.38 5.60 -3.640 -3.635 -3.628 -3.615 -3.595 11.32038 18.33861 -5.32914
 3.38 5.80 -3.575 -3.571 -3.565 -3.552 -3.533 11.43978 18.53958 -5.12818
 3.38 6.00 -3.509 -3.505 -3.499 -3.487 -3.468 11.55691 18.74036 -4.92738
 3.38 6.25 -3.424 -3.421 -3.414 -3.404 -3.386 11.69934 18.99118 -4.67652
 3.38 6.50 -3.337 -3.334 -3.329 -3.319 -3.302 11.83835 19.24179 -4.42585
 3.38 6.75 -3.249 -3.246 -3.241 -3.232 -3.216 11.97420 19.49221 -4.17548
 3.38 7.00 -3.161 -3.157 -3.154 -3.144 -3.131 12.10755 19.74249 -3.92518
 3.38 7.25 -3.072 -3.069 -3.065 -3.056 -3.044 12.23877 19.99264 -3.67491
 3.38 7.50 -2.983 -2.981 -2.977 -2.969 -2.958 12.36829 20.24279 -3.42470
 3.38 7.75 -2.895 -2.893 -2.890 -2.882 -2.872 12.49653 20.49298 -3.17454
 3.38 8.00 -2.809 -2.806 -2.803 -2.796 -2.787 12.62335 20.74320 -2.92445
 3.40-2.00 -4.716 -4.709 -4.695 -4.673 -4.643  5.84825 10.45954-13.20803
 3.40-1.50 -4.818 -4.809 -4.795 -4.769 -4.735  6.17609 10.95952-12.70819
 3.40-1.00 -4.901 -4.892 -4.875 -4.846 -4.809  6.50893 11.45954-12.20803
 3.40-0.50 -4.951 -4.940 -4.921 -4.889 -4.847  6.86564 11.95966-11.70797
 3.40 0.00 -4.952 -4.941 -4.919 -4.883 -4.838  7.25744 12.46000-11.20754
 3.40 0.50 -4.903 -4.889 -4.865 -4.826 -4.776  7.67284 12.96114-10.70642
 3.40 1.00 -4.797 -4.781 -4.755 -4.714 -4.663  8.08955 13.46449-10.20301
 3.40 1.25 -4.722 -4.705 -4.679 -4.637 -4.587  8.29517 13.71827 -9.94928
 3.40 1.50 -4.632 -4.613 -4.587 -4.545 -4.495  8.50079 13.97428 -9.69336
 3.40 1.75 -4.531 -4.512 -4.486 -4.445 -4.397  8.70687 14.23435 -9.43333
 3.40 2.00 -4.422 -4.403 -4.377 -4.337 -4.290  8.91366 14.49859 -9.16909
 3.40 2.25 -4.311 -4.293 -4.267 -4.230 -4.186  9.12526 14.76894 -8.89872
 3.40 2.50 -4.200 -4.184 -4.160 -4.125 -4.082  9.33686 15.04258 -8.62507
 3.40 2.75 -4.095 -4.081 -4.060 -4.027 -3.987  9.54806 15.31948 -8.34816
 3.40 3.00 -4.001 -3.988 -3.968 -3.938 -3.901  9.75853 15.59638 -8.07125
 3.40 3.20 -3.931 -3.920 -3.903 -3.875 -3.840  9.91813 15.81608 -7.85154
 3.40 3.40 -3.870 -3.859 -3.844 -3.818 -3.786 10.07181 16.03422 -7.63340
 3.40 3.60 -3.813 -3.804 -3.790 -3.767 -3.737 10.21838 16.25021 -7.41743
 3.40 3.80 -3.760 -3.753 -3.740 -3.720 -3.692 10.35849 16.46366 -7.20402
 3.40 4.00 -3.711 -3.704 -3.694 -3.676 -3.651 10.49360 16.67505 -6.99268
 3.40 4.20 -3.668 -3.662 -3.653 -3.636 -3.612 10.62391 16.88435 -6.78340
 3.40 4.40 -3.626 -3.620 -3.612 -3.596 -3.572 10.75206 17.09208 -6.57566
 3.40 4.60 -3.583 -3.579 -3.570 -3.556 -3.534 10.87808 17.29824 -6.36942
 3.40 4.80 -3.541 -3.536 -3.530 -3.515 -3.493 11.00319 17.50327 -6.16429
 3.40 5.00 -3.496 -3.492 -3.484 -3.470 -3.450 11.12775 17.70732 -5.96019
 3.40 5.20 -3.449 -3.444 -3.438 -3.424 -3.405 11.25225 17.91056 -5.75701
 3.40 5.40 -3.397 -3.393 -3.387 -3.374 -3.355 11.37626 18.11321 -5.55442
 3.40 5.60 -3.342 -3.339 -3.332 -3.320 -3.301 11.49958 18.31529 -5.35233
 3.40 5.80 -3.283 -3.280 -3.273 -3.263 -3.245 11.62164 18.51699 -5.15060
 3.40 6.00 -3.221 -3.218 -3.213 -3.202 -3.186 11.74241 18.71834 -4.94923
 3.40 6.25 -3.141 -3.138 -3.134 -3.123 -3.108 11.88997 18.96964 -4.69802
 3.40 6.50 -3.057 -3.055 -3.050 -3.041 -3.027 12.03423 19.22063 -4.44709
 3.40 6.75 -2.972 -2.970 -2.966 -2.957 -2.944 12.17477 19.47137 -4.19635
 3.40 7.00 -2.886 -2.884 -2.880 -2.872 -2.860 12.31218 19.72189 -3.94577
 3.40 7.25 -2.799 -2.797 -2.793 -2.786 -2.776 12.44665 19.97219 -3.69534
 3.40 7.50 -2.713 -2.711 -2.707 -2.701 -2.691 12.57875 20.22246 -3.44503
 3.40 7.75 -2.626 -2.624 -2.621 -2.615 -2.607 12.70902 20.47272 -3.19478
 3.40 8.00 -2.541 -2.539 -2.536 -2.530 -2.523 12.83727 20.72296 -2.94462
 3.42-2.00 -4.533 -4.526 -4.514 -4.493 -4.467  6.06108 10.43965-13.22805
 3.42-1.50 -4.628 -4.621 -4.607 -4.583 -4.552  6.41078 10.93957-12.72793
 3.42-1.00 -4.723 -4.714 -4.699 -4.673 -4.637  6.74170 11.43965-12.22797
 3.42-0.50 -4.799 -4.789 -4.771 -4.740 -4.701  7.06893 11.93962-11.72793
 3.42 0.00 -4.834 -4.823 -4.802 -4.768 -4.723  7.41044 12.43981-11.22783
 3.42 0.50 -4.809 -4.796 -4.773 -4.735 -4.685  7.78168 12.94017-10.72746
 3.42 1.00 -4.708 -4.694 -4.670 -4.628 -4.575  8.18213 13.44154-10.22607
 3.42 1.25 -4.627 -4.613 -4.588 -4.546 -4.492  8.38776 13.69303 -9.97458
 3.42 1.50 -4.529 -4.513 -4.488 -4.445 -4.393  8.59340 13.94547 -9.72216
 3.42 1.75 -4.412 -4.397 -4.372 -4.330 -4.279  8.79886 14.19989 -9.46776
 3.42 2.00 -4.283 -4.267 -4.242 -4.202 -4.153  9.00432 14.45682 -9.21084
 3.42 2.25 -4.149 -4.133 -4.109 -4.071 -4.025  9.21076 14.71810 -8.94951
 3.42 2.50 -4.012 -3.998 -3.976 -3.940 -3.896  9.41830 14.98372 -8.68382
 3.42 2.75 -3.883 -3.870 -3.849 -3.817 -3.776  9.62924 15.25574 -8.41184
 3.42 3.00 -3.760 -3.748 -3.730 -3.701 -3.664  9.84017 15.53033 -8.13727
 3.42 3.20 -3.670 -3.660 -3.643 -3.617 -3.582 10.00783 15.75174 -7.91584
 3.42 3.40 -3.587 -3.577 -3.563 -3.540 -3.509 10.17398 15.97315 -7.69441
 3.42 3.60 -3.511 -3.503 -3.491 -3.470 -3.442 10.33603 16.19363 -7.47393
 3.42 3.80 -3.443 -3.437 -3.426 -3.407 -3.382 10.49082 16.41184 -7.25574
 3.42 4.00 -3.382 -3.377 -3.368 -3.352 -3.329 10.63988 16.62829 -7.03934
 3.42 4.20 -3.331 -3.326 -3.318 -3.303 -3.281 10.78113 16.84196 -6.82572
 3.42 4.40 -3.283 -3.280 -3.273 -3.259 -3.238 10.91752 17.05360 -6.61411
 3.42 4.60 -3.241 -3.237 -3.231 -3.218 -3.198 11.04890 17.26317 -6.40453
 3.42 4.80 -3.201 -3.197 -3.191 -3.178 -3.160 11.17719 17.47108 -6.19659
 3.42 5.00 -3.161 -3.157 -3.151 -3.139 -3.121 11.30320 17.67752 -5.99012
 3.42 5.20 -3.119 -3.116 -3.110 -3.099 -3.082 11.42756 17.88267 -5.78496
 3.42 5.40 -3.076 -3.072 -3.067 -3.056 -3.039 11.55105 18.08689 -5.58074
 3.42 5.60 -3.029 -3.025 -3.021 -3.010 -2.994 11.67396 18.29023 -5.37746
 3.42 5.80 -2.978 -2.975 -2.970 -2.960 -2.944 11.79636 18.49297 -5.17478
 3.42 6.00 -2.924 -2.921 -2.916 -2.906 -2.892 11.91798 18.69513 -4.97265
 3.42 6.25 -2.851 -2.848 -2.844 -2.835 -2.822 12.06831 18.94712 -4.72055
 3.42 6.50 -2.773 -2.772 -2.767 -2.760 -2.747 12.21643 19.19866 -4.46890
 3.42 6.75 -2.694 -2.691 -2.688 -2.681 -2.669 12.36132 19.44992 -4.21757
 3.42 7.00 -2.611 -2.609 -2.606 -2.599 -2.589 12.50311 19.70088 -3.96658
 3.42 7.25 -2.527 -2.526 -2.523 -2.516 -2.507 12.64137 19.95148 -3.71601
 3.42 7.50 -2.443 -2.442 -2.438 -2.433 -2.424 12.77677 20.20194 -3.46559
 3.42 7.75 -2.359 -2.358 -2.354 -2.350 -2.342 12.90977 20.45236 -3.21524
 3.42 8.00 -2.275 -2.274 -2.272 -2.267 -2.260 13.04021 20.70269 -2.96497
 3.44-2.00 -4.389 -4.382 -4.371 -4.352 -4.326  6.20871 10.41963-13.24803
 3.44-1.50 -4.459 -4.452 -4.439 -4.417 -4.389  6.60021 10.91955-12.74812
 3.44-1.00 -4.541 -4.533 -4.518 -4.493 -4.460  6.96085 11.41963-12.24803
 3.44-0.50 -4.617 -4.609 -4.591 -4.563 -4.526  7.29732 11.91955-11.74812
 3.44 0.00 -4.668 -4.658 -4.639 -4.606 -4.562  7.62315 12.41963-11.24795
 3.44 0.50 -4.669 -4.656 -4.635 -4.596 -4.547  7.95497 12.91981-10.74788
 3.44 1.00 -4.595 -4.581 -4.557 -4.515 -4.460  8.30984 13.42029-10.24726
 3.44 1.25 -4.523 -4.509 -4.484 -4.441 -4.385  8.49915 13.67088 -9.99666
 3.44 1.50 -4.427 -4.413 -4.389 -4.346 -4.290  8.69408 13.92190 -9.74569
 3.44 1.75 -4.309 -4.294 -4.271 -4.228 -4.174  8.89416 14.17370 -9.49387
 3.44 2.00 -4.173 -4.158 -4.135 -4.095 -4.042  9.09656 14.42667 -9.24086
 3.44 2.25 -4.023 -4.010 -3.987 -3.950 -3.901  9.30014 14.68196 -8.98559
 3.44 2.50 -3.867 -3.854 -3.834 -3.799 -3.754  9.50529 14.94012 -8.72746
 3.44 2.75 -3.713 -3.701 -3.682 -3.651 -3.610  9.71205 15.20318 -8.46440
 3.44 3.00 -3.564 -3.553 -3.536 -3.509 -3.472  9.92028 15.47070 -8.19688
 3.44 3.20 -3.453 -3.444 -3.430 -3.405 -3.371 10.08850 15.68968 -7.97803
 3.44 3.40 -3.350 -3.342 -3.329 -3.306 -3.276 10.25673 15.90962 -7.75815
 3.44 3.60 -3.255 -3.248 -3.236 -3.217 -3.190 10.42417 16.13051 -7.53723
 3.44 3.80 -3.168 -3.162 -3.152 -3.136 -3.112 10.58897 16.35163 -7.31604
 3.44 4.00 -3.089 -3.084 -3.077 -3.062 -3.041 10.75128 16.57276 -7.09485
 3.44 4.20 -3.022 -3.018 -3.011 -2.998 -2.978 10.90623 16.79096 -6.87664
 3.44 4.40 -2.963 -2.960 -2.953 -2.941 -2.924 11.05554 17.00721 -6.66039
 3.44 4.60 -2.911 -2.909 -2.903 -2.891 -2.875 11.19836 17.22122 -6.44640
 3.44 4.80 -2.865 -2.863 -2.858 -2.847 -2.831 11.33545 17.43297 -6.23468
 3.44 5.00 -2.824 -2.820 -2.816 -2.806 -2.790 11.46790 17.64276 -6.02489
 3.44 5.20 -2.783 -2.780 -2.776 -2.766 -2.752 11.59599 17.85063 -5.81698
 3.44 5.40 -2.743 -2.741 -2.737 -2.727 -2.713 11.72183 18.05713 -5.61042
 3.44 5.60 -2.702 -2.700 -2.696 -2.687 -2.674 11.84567 18.26234 -5.40516
 3.44 5.80 -2.659 -2.656 -2.653 -2.645 -2.631 11.96836 18.46663 -5.20084
 3.44 6.00 -2.612 -2.610 -2.607 -2.598 -2.586 12.08991 18.67006 -4.99740
 3.44 6.25 -2.550 -2.548 -2.544 -2.536 -2.525 12.24096 18.92331 -4.74418
 3.44 6.50 -2.482 -2.480 -2.477 -2.470 -2.459 12.39041 19.17580 -4.49174
 3.44 6.75 -2.410 -2.407 -2.405 -2.398 -2.388 12.53795 19.42777 -4.23987
 3.44 7.00 -2.333 -2.332 -2.329 -2.323 -2.313 12.68314 19.67924 -3.98843
 3.44 7.25 -2.255 -2.253 -2.250 -2.245 -2.237 12.82506 19.93021 -3.73734
 3.44 7.50 -2.175 -2.173 -2.171 -2.166 -2.158 12.96398 20.18099 -3.48652
 3.44 7.75 -2.094 -2.093 -2.090 -2.086 -2.079 13.09987 20.43167 -3.23589
 3.44 8.00 -2.014 -2.013 -2.010 -2.006 -2.000 13.23274 20.68224 -2.98548
 3.46-2.00 -4.289 -4.284 -4.274 -4.255 -4.231  6.29292 10.39950-13.26809
 3.46-1.50 -4.332 -4.325 -4.313 -4.293 -4.265  6.72444 10.89949-12.76802
 3.46-1.00 -4.385 -4.378 -4.365 -4.341 -4.309  7.12743 11.39950-12.26809
 3.46-0.50 -4.443 -4.434 -4.418 -4.391 -4.354  7.49859 11.89949-11.76802
 3.46 0.00 -4.484 -4.474 -4.457 -4.424 -4.382  7.84198 12.39950-11.26801
 3.46 0.50 -4.489 -4.477 -4.457 -4.419 -4.371  8.16909 12.89960-10.76802
