 ROSSELAND MASS ABSORPTION COEFFICIENTS [-1.0]
 logT logP  0km/s  1km/s  2km/s  4km/s  8km/s  log Ne   log Na  log rho IPloCM-1
 3.32-2.00 -5.729 -5.722 -5.710 -5.688 -5.660  4.40140 10.53995-13.13324   0.001
 3.32-1.50 -5.746 -5.739 -5.726 -5.703 -5.675  4.85400 11.04060-12.63246   0.001
 3.32-1.00 -5.762 -5.754 -5.741 -5.718 -5.690  5.29667 11.54370-12.12948   0.002
 3.32-0.50 -5.777 -5.770 -5.756 -5.732 -5.703  5.72198 12.05192-11.62124   0.004
 3.32 0.00 -5.785 -5.777 -5.763 -5.739 -5.710  6.14145 12.57334-11.09985   0.006
 3.32 0.50 -5.780 -5.772 -5.758 -5.734 -5.705  6.57264 13.11428-10.55878   0.010
 3.32 1.00 -5.758 -5.750 -5.736 -5.712 -5.684  7.02243 13.66792-10.00529   0.017
 3.32 1.25 -5.740 -5.731 -5.718 -5.694 -5.666  7.24529 13.94301 -9.73022   0.022
 3.32 1.50 -5.719 -5.711 -5.697 -5.674 -5.646  7.46509 14.21617 -9.45705   0.028
 3.32 1.75 -5.696 -5.688 -5.674 -5.652 -5.624  7.67015 14.48506 -9.18821   0.036
 3.32 2.00 -5.672 -5.664 -5.652 -5.630 -5.603  7.86386 14.75066 -8.92263   0.045
 3.32 2.25 -5.646 -5.639 -5.627 -5.607 -5.581  8.04404 15.01288 -8.66030   0.055
 3.32 2.50 -5.620 -5.613 -5.602 -5.583 -5.558  8.21564 15.27254 -8.40055   0.067
 3.32 2.75 -5.590 -5.584 -5.574 -5.556 -5.533  8.37942 15.53000 -8.14312   0.081
 3.32 3.00 -5.557 -5.551 -5.542 -5.526 -5.504  8.54033 15.78576 -7.88740   0.097
 3.32 3.20 -5.526 -5.521 -5.513 -5.498 -5.477  8.66730 15.98929 -7.68384   0.112
 3.32 3.40 -5.492 -5.487 -5.480 -5.466 -5.447  8.79427 16.19217 -7.48095   0.130
 3.32 3.60 -5.453 -5.449 -5.442 -5.430 -5.412  8.92195 16.39444 -7.27873   0.151
 3.32 3.80 -5.409 -5.405 -5.399 -5.389 -5.372  9.05111 16.59629 -7.07693   0.175
 3.32 4.00 -5.359 -5.356 -5.351 -5.342 -5.327  9.18127 16.79775 -6.87550   0.203
 3.32 4.20 -5.310 -5.307 -5.302 -5.293 -5.278  9.31330 16.99886 -6.67430   0.236
 3.32 4.40 -5.255 -5.252 -5.247 -5.238 -5.224  9.44533 17.19978 -6.47334   0.275
 3.32 4.60 -5.195 -5.192 -5.187 -5.178 -5.164  9.57677 17.40054 -6.27261   0.320
 3.32 4.80 -5.130 -5.127 -5.123 -5.114 -5.099  9.70636 17.60118 -6.07205   0.371
 3.32 5.00 -5.058 -5.055 -5.051 -5.042 -5.027  9.83430 17.80168 -5.87160   0.430
 3.32 5.20 -4.979 -4.976 -4.971 -4.962 -4.948  9.95821 18.00196 -5.67123   0.496
 3.32 5.40 -4.889 -4.886 -4.882 -4.873 -4.859 10.07904 18.20221 -5.47092   0.570
 3.32 5.60 -4.786 -4.783 -4.779 -4.771 -4.757 10.19649 18.40246 -5.27068   0.652
 3.32 5.80 -4.668 -4.665 -4.661 -4.653 -4.640 10.31092 18.60269 -5.07047   0.744
 3.32 6.00 -4.530 -4.528 -4.524 -4.516 -4.504 10.42275 18.80291 -4.87031   0.847
 3.32 6.25 -4.325 -4.323 -4.320 -4.313 -4.302 10.55941 19.05308 -4.62017   0.991
 3.32 6.50 -4.076 -4.075 -4.072 -4.066 -4.057 10.69338 19.30320 -4.37008   1.156
 3.32 6.75 -3.777 -3.775 -3.773 -3.768 -3.762 10.82513 19.55327 -4.12003   1.345
 3.32 7.00 -3.572 -3.571 -3.569 -3.565 -3.560 10.95521 19.80332 -3.86999   1.563
 3.32 7.25 -3.447 -3.446 -3.444 -3.440 -3.435 11.08396 20.05338 -3.61994   1.813
 3.32 7.50 -3.326 -3.325 -3.323 -3.320 -3.316 11.21165 20.30341 -3.36988   2.100
 3.32 7.75 -3.210 -3.209 -3.208 -3.205 -3.201 11.33858 20.55342 -3.11978   2.430
 3.32 8.00 -3.100 -3.099 -3.098 -3.095 -3.092 11.46464 20.80339 -2.86967   2.810
 3.34-2.00 -5.625 -5.618 -5.604 -5.582 -5.553  4.52061 10.51957-13.15366   0.001
 3.34-1.50 -5.664 -5.657 -5.643 -5.620 -5.591  4.92536 11.01995-12.65345   0.001
 3.34-1.00 -5.682 -5.675 -5.661 -5.637 -5.608  5.36324 11.52061-12.15249   0.002
 3.34-0.50 -5.687 -5.679 -5.665 -5.641 -5.610  5.80747 12.02325-11.64975   0.004
 3.34 0.00 -5.679 -5.671 -5.656 -5.631 -5.601  6.23930 12.53148-11.14164   0.007
 3.34 0.50 -5.656 -5.647 -5.632 -5.606 -5.576  6.66323 13.05231-10.62088   0.011
 3.34 1.00 -5.616 -5.607 -5.591 -5.566 -5.535  7.09307 13.59284-10.08029   0.018
 3.34 1.25 -5.590 -5.581 -5.565 -5.540 -5.508  7.31425 13.86949 -9.80362   0.023
 3.34 1.50 -5.559 -5.550 -5.535 -5.509 -5.478  7.53542 14.14613 -9.52695   0.030
 3.34 1.75 -5.524 -5.515 -5.500 -5.475 -5.444  7.75589 14.42132 -9.25179   0.038
 3.34 2.00 -5.487 -5.478 -5.464 -5.440 -5.409  7.97511 14.69478 -8.97840   0.049
 3.34 2.25 -5.448 -5.440 -5.426 -5.403 -5.374  8.18200 14.96387 -8.70929   0.062
 3.34 2.50 -5.410 -5.403 -5.390 -5.369 -5.341  8.37876 15.22968 -8.44346   0.079
 3.34 2.75 -5.373 -5.366 -5.354 -5.335 -5.309  8.56211 15.49219 -8.18101   0.098
 3.34 3.00 -5.336 -5.330 -5.320 -5.302 -5.277  8.73624 15.75205 -7.92118   0.119
 3.34 3.20 -5.305 -5.300 -5.290 -5.274 -5.251  8.86888 15.95816 -7.71502   0.138
 3.34 3.40 -5.273 -5.268 -5.260 -5.245 -5.224  8.99892 16.16318 -7.50995   0.161
 3.34 3.60 -5.239 -5.235 -5.227 -5.214 -5.194  9.12608 16.36719 -7.30591   0.186
 3.34 3.80 -5.201 -5.198 -5.191 -5.179 -5.161  9.25233 16.57049 -7.10260   0.215
 3.34 4.00 -5.160 -5.157 -5.151 -5.140 -5.124  9.37858 16.77313 -6.89997   0.249
 3.34 4.20 -5.119 -5.116 -5.111 -5.101 -5.085  9.50545 16.97522 -6.69797   0.288
 3.34 4.40 -5.074 -5.071 -5.066 -5.056 -5.040  9.63287 17.17691 -6.49634   0.334
 3.34 4.60 -5.025 -5.022 -5.017 -5.007 -4.992  9.76151 17.37822 -6.29505   0.387
 3.34 4.80 -4.973 -4.970 -4.965 -4.955 -4.940  9.89093 17.57928 -6.09398   0.449
 3.34 5.00 -4.916 -4.913 -4.908 -4.898 -4.883 10.02036 17.78010 -5.89313   0.521
 3.34 5.20 -4.856 -4.853 -4.848 -4.838 -4.823 10.14843 17.98075 -5.69247   0.604
 3.34 5.40 -4.792 -4.789 -4.785 -4.775 -4.760 10.27507 18.18127 -5.49192   0.698
 3.34 5.60 -4.725 -4.723 -4.718 -4.709 -4.694 10.39944 18.38169 -5.29146   0.805
 3.34 5.80 -4.657 -4.654 -4.650 -4.640 -4.626 10.52053 18.58204 -5.09107   0.926
 3.34 6.00 -4.586 -4.584 -4.579 -4.570 -4.556 10.63889 18.78233 -4.89076   1.061
 3.34 6.25 -4.497 -4.494 -4.490 -4.482 -4.468 10.78237 19.03263 -4.64057   1.252
 3.34 6.50 -4.406 -4.404 -4.400 -4.392 -4.379 10.92205 19.28285 -4.39041   1.470
 3.34 6.75 -4.315 -4.313 -4.309 -4.302 -4.290 11.05834 19.53298 -4.14024   1.720
 3.34 7.00 -4.225 -4.223 -4.219 -4.212 -4.201 11.19201 19.78305 -3.89008   2.006
 3.34 7.25 -4.134 -4.132 -4.129 -4.122 -4.112 11.32352 20.03306 -3.64003   2.334
 3.34 7.50 -4.044 -4.042 -4.039 -4.033 -4.023 11.45332 20.28308 -3.38998   2.710
 3.34 7.75 -3.955 -3.953 -3.950 -3.944 -3.936 11.58187 20.53315 -3.13988   3.142
 3.34 8.00 -3.866 -3.864 -3.861 -3.856 -3.848 11.70902 20.78326 -2.88975   3.638
 3.36-2.00 -5.467 -5.460 -5.446 -5.423 -5.394  4.74943 10.49941-13.17373   0.001
 3.36-1.50 -5.538 -5.530 -5.516 -5.492 -5.463  5.09132 10.99948-12.67366   0.002
 3.36-1.00 -5.587 -5.579 -5.565 -5.541 -5.510  5.46553 11.49982-12.17334   0.003
 3.36-0.50 -5.607 -5.599 -5.584 -5.559 -5.528  5.87933 12.00087-11.67244   0.004
 3.36 0.00 -5.596 -5.588 -5.573 -5.547 -5.515  6.31597 12.50352-11.16960   0.007
 3.36 0.50 -5.557 -5.548 -5.533 -5.506 -5.474  6.75074 13.01157-10.66134   0.012
 3.36 1.00 -5.491 -5.481 -5.465 -5.438 -5.404  7.17898 13.53301-10.14020   0.019
 3.36 1.25 -5.450 -5.440 -5.424 -5.396 -5.363  7.39400 13.80167 -9.87167   0.025
 3.36 1.50 -5.406 -5.396 -5.380 -5.352 -5.318  7.61002 14.07408 -9.59929   0.032
 3.36 1.75 -5.360 -5.350 -5.334 -5.308 -5.274  7.82904 14.35073 -9.32252   0.041
 3.36 2.00 -5.312 -5.303 -5.287 -5.261 -5.229  8.04805 14.62737 -9.04576   0.053
 3.36 2.25 -5.261 -5.252 -5.238 -5.214 -5.183  8.26606 14.90248 -8.77066   0.068
 3.36 2.50 -5.209 -5.201 -5.188 -5.165 -5.136  8.48244 15.17580 -8.49744   0.087
 3.36 2.75 -5.157 -5.150 -5.138 -5.117 -5.089  8.68915 15.44473 -8.22835   0.110
 3.36 3.00 -5.107 -5.100 -5.089 -5.070 -5.044  8.88694 15.71037 -7.96257   0.138
 3.36 3.20 -5.067 -5.061 -5.051 -5.033 -5.009  9.03552 15.92047 -7.75265   0.164
 3.36 3.40 -5.029 -5.023 -5.014 -4.998 -4.975  9.17815 16.12890 -7.54435   0.193
 3.36 3.60 -4.990 -4.985 -4.977 -4.962 -4.941  9.31443 16.33566 -7.33757   0.226
 3.36 3.80 -4.950 -4.946 -4.939 -4.925 -4.906  9.44648 16.54118 -7.13192   0.263
 3.36 4.00 -4.908 -4.905 -4.899 -4.887 -4.869  9.57542 16.74562 -6.92738   0.305
 3.36 4.20 -4.869 -4.865 -4.860 -4.849 -4.831  9.70111 16.94920 -6.72390   0.353
 3.36 4.40 -4.826 -4.823 -4.817 -4.807 -4.790  9.82680 17.15213 -6.52105   0.407
 3.36 4.60 -4.780 -4.778 -4.772 -4.762 -4.745  9.95248 17.35441 -6.31878   0.471
 3.36 4.80 -4.732 -4.730 -4.724 -4.714 -4.698 10.07817 17.55626 -6.11691   0.544
 3.36 5.00 -4.679 -4.676 -4.671 -4.661 -4.645 10.20385 17.75770 -5.91542   0.629
 3.36 5.20 -4.622 -4.619 -4.614 -4.604 -4.589 10.33082 17.95880 -5.71435   0.728
 3.36 5.40 -4.559 -4.556 -4.552 -4.542 -4.527 10.45778 18.15970 -5.51345   0.842
 3.36 5.60 -4.492 -4.489 -4.484 -4.475 -4.460 10.58432 18.36044 -5.31270   0.974
 3.36 5.80 -4.420 -4.418 -4.413 -4.404 -4.390 10.70949 18.56106 -5.11204   1.125
 3.36 6.00 -4.346 -4.344 -4.340 -4.331 -4.317 10.83340 18.76155 -4.91151   1.297
 3.36 6.25 -4.251 -4.249 -4.245 -4.237 -4.224 10.98381 19.01190 -4.66112   1.543
 3.36 6.50 -4.155 -4.153 -4.149 -4.142 -4.130 11.13033 19.26221 -4.41083   1.827
 3.36 6.75 -4.059 -4.057 -4.054 -4.047 -4.036 11.27266 19.51253 -4.16062   2.152
 3.36 7.00 -3.964 -3.962 -3.959 -3.952 -3.943 11.41145 19.76283 -3.91045   2.524
 3.36 7.25 -3.870 -3.869 -3.866 -3.860 -3.851 11.54689 20.01288 -3.66029   2.950
 3.36 7.50 -3.778 -3.777 -3.774 -3.768 -3.760 11.67979 20.26293 -3.41016   3.438
 3.36 7.75 -3.688 -3.686 -3.684 -3.679 -3.671 11.81081 20.51304 -3.16010   3.998
 3.36 8.00 -3.599 -3.597 -3.595 -3.590 -3.584 11.93972 20.76320 -2.91010   4.637
 3.38-2.00 -5.291 -5.284 -5.271 -5.248 -5.220  5.00689 10.47943-13.19375   0.002
 3.38-1.50 -5.372 -5.364 -5.351 -5.326 -5.297  5.33706 10.97941-12.69379   0.002
 3.38-1.00 -5.445 -5.437 -5.422 -5.397 -5.366  5.66792 11.47958-12.19362   0.003
 3.38-0.50 -5.496 -5.488 -5.473 -5.447 -5.415  6.01870 11.97982-11.69336   0.005
 3.38 0.00 -5.510 -5.502 -5.486 -5.460 -5.427  6.40603 12.48087-11.19233   0.008
 3.38 0.50 -5.477 -5.468 -5.452 -5.425 -5.391  6.82679 12.98381-10.68931   0.013
 3.38 1.00 -5.396 -5.386 -5.370 -5.341 -5.307  7.25912 13.49262-10.18052   0.021
 3.38 1.25 -5.340 -5.331 -5.314 -5.286 -5.250  7.47474 13.75177 -9.92136   0.027
 3.38 1.50 -5.279 -5.269 -5.253 -5.224 -5.189  7.69037 14.01494 -9.65817   0.034
 3.38 1.75 -5.214 -5.205 -5.189 -5.161 -5.126  7.90687 14.28425 -9.38890   0.044
 3.38 2.00 -5.148 -5.139 -5.123 -5.097 -5.062  8.12385 14.55715 -9.11600   0.056
 3.38 2.25 -5.083 -5.074 -5.059 -5.034 -5.002  8.34146 14.83387 -8.83920   0.072
 3.38 2.50 -5.017 -5.009 -4.995 -4.972 -4.941  8.55907 15.11059 -8.56241   0.092
 3.38 2.75 -4.951 -4.943 -4.931 -4.909 -4.880  8.77481 15.38546 -8.28756   0.118
 3.38 3.00 -4.884 -4.877 -4.866 -4.846 -4.819  8.98802 15.65830 -8.01480   0.152
 3.38 3.20 -4.830 -4.824 -4.814 -4.795 -4.770  9.15279 15.87335 -7.79974   0.184
 3.38 3.40 -4.778 -4.772 -4.763 -4.746 -4.722  9.31238 16.08631 -7.58678   0.221
 3.38 3.60 -4.727 -4.722 -4.713 -4.698 -4.676  9.46538 16.29713 -7.37603   0.263
 3.38 3.80 -4.677 -4.673 -4.665 -4.651 -4.631  9.61132 16.50614 -7.16710   0.311
 3.38 4.00 -4.628 -4.625 -4.618 -4.606 -4.588  9.75143 16.71349 -6.95979   0.365
 3.38 4.20 -4.584 -4.581 -4.575 -4.564 -4.546  9.88535 16.91930 -6.75386   0.426
 3.38 4.40 -4.539 -4.536 -4.531 -4.520 -4.503 10.01589 17.12408 -6.54900   0.495
 3.38 4.60 -4.495 -4.492 -4.487 -4.477 -4.460 10.14282 17.32791 -6.34520   0.573
 3.38 4.80 -4.450 -4.447 -4.442 -4.432 -4.416 10.26816 17.53107 -6.14213   0.662
 3.38 5.00 -4.401 -4.398 -4.393 -4.383 -4.368 10.39287 17.73360 -5.93968   0.764
 3.38 5.20 -4.349 -4.347 -4.342 -4.333 -4.317 10.51714 17.93555 -5.73766   0.881
 3.38 5.40 -4.293 -4.290 -4.286 -4.277 -4.262 10.64141 18.13714 -5.53602   1.017
 3.38 5.60 -4.231 -4.228 -4.224 -4.215 -4.201 10.76600 18.33841 -5.33475   1.173
 3.38 5.80 -4.164 -4.161 -4.157 -4.149 -4.135 10.89089 18.53946 -5.13373   1.355
 3.38 6.00 -4.092 -4.090 -4.086 -4.078 -4.065 11.01578 18.74028 -4.93293   1.564
 3.38 6.25 -3.998 -3.996 -3.993 -3.985 -3.973 11.16985 18.99099 -4.68216   1.868
 3.38 6.50 -3.901 -3.899 -3.896 -3.889 -3.878 11.32181 19.24155 -4.43156   2.225
 3.38 6.75 -3.803 -3.801 -3.798 -3.791 -3.782 11.46990 19.49203 -4.18107   2.638
 3.38 7.00 -3.705 -3.703 -3.700 -3.694 -3.686 11.61448 19.74241 -3.93070   3.116
 3.38 7.25 -3.609 -3.607 -3.604 -3.599 -3.591 11.75500 19.99263 -3.68055   3.664
 3.38 7.50 -3.514 -3.513 -3.510 -3.506 -3.499 11.89226 20.24279 -3.43039   4.291
 3.38 7.75 -3.423 -3.421 -3.419 -3.415 -3.408 12.02677 20.49293 -3.18019   5.009
 3.38 8.00 -3.333 -3.332 -3.330 -3.326 -3.320 12.15836 20.74304 -2.92996   5.828
 3.40-2.00 -5.133 -5.126 -5.114 -5.092 -5.066  5.21932 10.45939-13.21375   0.002
 3.40-1.50 -5.204 -5.197 -5.183 -5.160 -5.132  5.57795 10.95938-12.71377   0.003
 3.40-1.00 -5.279 -5.271 -5.257 -5.232 -5.202  5.91418 11.45939-12.21375   0.004
 3.40-0.50 -5.346 -5.338 -5.323 -5.296 -5.264  6.24155 11.95952-11.71354   0.006
 3.40 0.00 -5.388 -5.379 -5.363 -5.336 -5.303  6.57807 12.45984-11.21325   0.009
 3.40 0.50 -5.383 -5.374 -5.357 -5.329 -5.294  6.94216 12.96099-10.71220   0.014
 3.40 1.00 -5.313 -5.304 -5.287 -5.258 -5.222  7.34282 13.46434-10.20873   0.022
 3.40 1.25 -5.254 -5.245 -5.228 -5.199 -5.163  7.55361 13.71813 -9.95495   0.028
 3.40 1.50 -5.183 -5.174 -5.157 -5.128 -5.092  7.76716 13.97414 -9.69897   0.036
 3.40 1.75 -5.102 -5.093 -5.077 -5.049 -5.013  7.98227 14.23420 -9.43896   0.046
 3.40 2.00 -5.015 -5.007 -4.992 -4.965 -4.930  8.19866 14.49845 -9.17477   0.060
 3.40 2.25 -4.927 -4.918 -4.904 -4.879 -4.845  8.41637 14.76891 -8.90442   0.077
 3.40 2.50 -4.838 -4.830 -4.816 -4.792 -4.761  8.63407 15.04258 -8.63078   0.099
 3.40 2.75 -4.751 -4.744 -4.731 -4.709 -4.680  8.85131 15.31937 -8.35387   0.127
 3.40 3.00 -4.666 -4.660 -4.648 -4.628 -4.600  9.06781 15.59616 -8.07696   0.162
 3.40 3.20 -4.600 -4.593 -4.583 -4.564 -4.538  9.23890 15.81580 -7.85726   0.197
 3.40 3.40 -4.534 -4.528 -4.519 -4.502 -4.478  9.40761 16.03391 -7.63911   0.240
 3.40 3.60 -4.469 -4.464 -4.455 -4.440 -4.418  9.57312 16.24992 -7.42311   0.290
 3.40 3.80 -4.405 -4.401 -4.393 -4.379 -4.359  9.73354 16.46343 -7.20965   0.349
 3.40 4.00 -4.343 -4.340 -4.334 -4.322 -4.303  9.88908 16.67486 -6.99827   0.418
 3.40 4.20 -4.288 -4.285 -4.280 -4.268 -4.251 10.03713 16.88411 -6.78904   0.496
 3.40 4.40 -4.236 -4.233 -4.228 -4.217 -4.201 10.17958 17.09180 -6.58135   0.584
 3.40 4.60 -4.186 -4.184 -4.179 -4.169 -4.153 10.31593 17.29801 -6.37509   0.683
 3.40 4.80 -4.139 -4.137 -4.132 -4.123 -4.108 10.44779 17.50314 -6.16991   0.795
 3.40 5.00 -4.092 -4.090 -4.085 -4.076 -4.061 10.57623 17.70723 -5.96577   0.922
 3.40 5.20 -4.044 -4.042 -4.038 -4.029 -4.015 10.70158 17.91039 -5.76264   1.065
 3.40 5.40 -3.994 -3.992 -3.987 -3.979 -3.965 10.82590 18.11297 -5.56010   1.229
 3.40 5.60 -3.939 -3.937 -3.933 -3.925 -3.912 10.94922 18.31505 -5.35809   1.416
 3.40 5.80 -3.880 -3.878 -3.874 -3.867 -3.854 11.07221 18.51679 -5.15641   1.631
 3.40 6.00 -3.816 -3.815 -3.811 -3.804 -3.792 11.19507 18.71817 -4.95507   1.879
 3.40 6.25 -3.731 -3.729 -3.726 -3.719 -3.708 11.34865 18.96942 -4.70372   2.243
 3.40 6.50 -3.639 -3.637 -3.634 -3.628 -3.618 11.50202 19.22037 -4.45272   2.676
 3.40 6.75 -3.544 -3.542 -3.539 -3.534 -3.525 11.65334 19.47114 -4.20207   3.185
 3.40 7.00 -3.447 -3.445 -3.443 -3.438 -3.430 11.80250 19.72173 -3.95156   3.782
 3.40 7.25 -3.350 -3.349 -3.346 -3.342 -3.335 11.94786 19.97215 -3.70111   4.471
 3.40 7.50 -3.255 -3.254 -3.252 -3.247 -3.241 12.08991 20.22246 -3.45075   5.265
 3.40 7.75 -3.162 -3.161 -3.159 -3.155 -3.150 12.22854 20.47271 -3.20052   6.176
 3.40 8.00 -3.073 -3.072 -3.070 -3.066 -3.061 12.36380 20.72288 -2.95039   7.216
 3.42-2.00 -5.012 -5.006 -4.994 -4.974 -4.949  5.35736 10.43949-13.23374   0.002
 3.42-1.50 -5.061 -5.054 -5.042 -5.020 -4.993  5.76072 10.93942-12.73377   0.004
 3.42-1.00 -5.121 -5.114 -5.100 -5.077 -5.048  6.13290 11.43949-12.23366   0.005
 3.42-0.50 -5.185 -5.177 -5.162 -5.136 -5.105  6.47799 11.93947-11.73377   0.008
 3.42 0.00 -5.236 -5.227 -5.211 -5.184 -5.150  6.80686 12.43965-11.23351   0.012
 3.42 0.50 -5.251 -5.242 -5.226 -5.197 -5.161  7.13577 12.94002-10.73306   0.017
 3.42 1.00 -5.208 -5.199 -5.181 -5.152 -5.115  7.48302 13.44138-10.23181   0.026
 3.42 1.25 -5.159 -5.149 -5.132 -5.103 -5.066  7.66937 13.69287 -9.98035   0.032
 3.42 1.50 -5.092 -5.083 -5.066 -5.037 -5.000  7.86386 13.94532 -9.72793   0.040
 3.42 1.75 -5.008 -4.999 -4.983 -4.955 -4.918  8.06732 14.19974 -9.47349   0.050
 3.42 2.00 -4.911 -4.903 -4.887 -4.860 -4.824  8.27623 14.45667 -9.21653   0.064
 3.42 2.25 -4.804 -4.796 -4.781 -4.755 -4.721  8.48950 14.71795 -8.95519   0.081
 3.42 2.50 -4.690 -4.683 -4.670 -4.645 -4.613  8.70527 14.98358 -8.68952   0.104
 3.42 2.75 -4.576 -4.569 -4.557 -4.535 -4.505  8.92336 15.25564 -8.41756   0.134
 3.42 3.00 -4.465 -4.458 -4.447 -4.427 -4.399  9.14145 15.53020 -8.14303   0.173
 3.42 3.20 -4.380 -4.374 -4.364 -4.345 -4.319  9.31500 15.75152 -7.92164   0.211
 3.42 3.40 -4.298 -4.293 -4.284 -4.267 -4.243  9.48749 15.97284 -7.70025   0.257
 3.42 3.60 -4.220 -4.215 -4.207 -4.192 -4.170  9.65833 16.19329 -7.47978   0.313
 3.42 3.80 -4.144 -4.140 -4.133 -4.120 -4.100  9.82611 16.41155 -7.26153   0.380
 3.42 4.00 -4.071 -4.068 -4.062 -4.050 -4.033  9.99096 16.62808 -7.04503   0.459
 3.42 4.20 -4.004 -4.001 -3.996 -3.985 -3.969 10.15133 16.84171 -6.83139   0.552
 3.42 4.40 -3.940 -3.937 -3.932 -3.923 -3.908 10.30692 17.05332 -6.61976   0.661
 3.42 4.60 -3.881 -3.878 -3.874 -3.865 -3.851 10.45678 17.26290 -6.41015   0.785
 3.42 4.80 -3.826 -3.824 -3.820 -3.811 -3.798 10.60054 17.47087 -6.20217   0.926
 3.42 5.00 -3.774 -3.772 -3.768 -3.760 -3.747 10.73902 17.67733 -5.99568   1.086
 3.42 5.20 -3.725 -3.723 -3.720 -3.712 -3.699 10.87172 17.88243 -5.79059   1.265
 3.42 5.40 -3.676 -3.674 -3.671 -3.663 -3.652 11.00106 18.08661 -5.58641   1.469
 3.42 5.60 -3.626 -3.624 -3.621 -3.614 -3.603 11.12696 18.28996 -5.38302   1.698
 3.42 5.80 -3.574 -3.572 -3.569 -3.562 -3.551 11.25102 18.49274 -5.18021   1.959
 3.42 6.00 -3.518 -3.517 -3.514 -3.507 -3.497 11.37383 18.69496 -4.97798   2.256
 3.42 6.25 -3.444 -3.442 -3.439 -3.433 -3.424 11.52636 18.94706 -4.72607   2.689
 3.42 6.50 -3.363 -3.361 -3.359 -3.353 -3.344 11.67806 19.19866 -4.47457   3.202
 3.42 6.75 -3.276 -3.275 -3.272 -3.267 -3.259 11.82942 19.44988 -4.22326   3.812
 3.42 7.00 -3.185 -3.184 -3.182 -3.177 -3.170 11.97987 19.70079 -3.97224   4.533
 3.42 7.25 -3.092 -3.091 -3.089 -3.085 -3.078 12.12819 19.95145 -3.72165   5.377
 3.42 7.50 -2.999 -2.998 -2.996 -2.992 -2.986 12.27416 20.20194 -3.47121   6.361
 3.42 7.75 -2.907 -2.906 -2.904 -2.901 -2.895 12.41657 20.45234 -3.22086   7.494
 3.42 8.00 -2.818 -2.817 -2.815 -2.812 -2.807 12.55582 20.70260 -2.97062   8.797
 3.44-2.00 -4.928 -4.922 -4.911 -4.891 -4.868  5.43152 10.41946-13.25368   0.002
 3.44-1.50 -4.955 -4.948 -4.937 -4.916 -4.891  5.87373 10.91939-12.75375   0.004
 3.44-1.00 -4.993 -4.986 -4.973 -4.951 -4.924  6.28937 11.41946-12.25368   0.006
 3.44-0.50 -5.038 -5.031 -5.017 -4.993 -4.963  6.67468 11.91944-11.75375   0.010
 3.44 0.00 -5.080 -5.072 -5.057 -5.030 -4.998  7.02979 12.41946-11.25360   0.015
 3.44 0.50 -5.098 -5.089 -5.073 -5.045 -5.009  7.36286 12.91965-10.75350   0.022
 3.44 1.00 -5.067 -5.057 -5.040 -5.011 -4.974  7.68878 13.42012-10.25298   0.032
 3.44 1.25 -5.027 -5.017 -5.001 -4.971 -4.933  7.85497 13.67072-10.00234   0.039
 3.44 1.50 -4.970 -4.961 -4.944 -4.915 -4.877  8.02490 13.92174 -9.75129   0.047
 3.44 1.75 -4.894 -4.885 -4.869 -4.841 -4.803  8.20308 14.17361 -9.49949   0.058
 3.44 2.00 -4.801 -4.793 -4.777 -4.750 -4.713  8.38899 14.42667 -9.24657   0.071
 3.44 2.25 -4.691 -4.682 -4.668 -4.642 -4.607  8.58463 14.68191 -8.99137   0.089
 3.44 2.50 -4.567 -4.559 -4.546 -4.521 -4.488  8.78760 14.93997 -8.73330   0.112
 3.44 2.75 -4.433 -4.426 -4.414 -4.391 -4.360  8.99771 15.20304 -8.47015   0.143
 3.44 3.00 -4.297 -4.290 -4.279 -4.259 -4.231  9.21165 15.47056 -8.20253   0.183
 3.44 3.20 -4.190 -4.184 -4.174 -4.156 -4.130  9.38567 15.68934 -7.98365   0.224
 3.44 3.40 -4.087 -4.082 -4.073 -4.057 -4.033  9.55969 15.90920 -7.76377   0.273
