 ROSSELAND MASS ABSORPTION COEFFICIENTS [-1.5]
 logT logP  0km/s  1km/s  2km/s  4km/s  8km/s  log Ne   log Na  log rho IPloCM-1
 3.32-2.00 -5.930 -5.924 -5.913 -5.892 -5.866  3.96544 10.54033-13.13371   0.001
 3.32-1.50 -5.952 -5.946 -5.934 -5.913 -5.887  4.40261 11.04139-12.63283   0.001
 3.32-1.00 -5.961 -5.954 -5.942 -5.921 -5.894  4.85697 11.54419-12.12995   0.001
 3.32-0.50 -5.961 -5.955 -5.943 -5.921 -5.893  5.30428 12.05231-11.62160   0.002
 3.32 0.00 -5.953 -5.947 -5.934 -5.912 -5.885  5.73973 12.57368-11.10034   0.004
 3.32 0.50 -5.938 -5.931 -5.919 -5.898 -5.871  6.17464 13.11494-10.55925   0.006
 3.32 1.00 -5.917 -5.911 -5.899 -5.879 -5.854  6.61606 13.66829-10.00577   0.011
 3.32 1.25 -5.902 -5.896 -5.885 -5.865 -5.841  6.83932 13.94330 -9.73071   0.014
 3.32 1.50 -5.883 -5.877 -5.866 -5.847 -5.824  7.06258 14.21643 -9.45755   0.018
 3.32 1.75 -5.861 -5.855 -5.844 -5.826 -5.803  7.28053 14.48542 -9.18863   0.023
 3.32 2.00 -5.836 -5.830 -5.820 -5.802 -5.780  7.49248 14.75113 -8.92300   0.029
 3.32 2.25 -5.809 -5.803 -5.794 -5.777 -5.755  7.69133 15.01336 -8.66078   0.036
 3.32 2.50 -5.781 -5.776 -5.767 -5.751 -5.730  7.87956 15.27300 -8.40110   0.045
 3.32 2.75 -5.751 -5.746 -5.738 -5.724 -5.704  8.05589 15.53044 -8.14354   0.055
 3.32 3.00 -5.719 -5.715 -5.708 -5.694 -5.676  8.22453 15.78618 -7.88773   0.067
 3.32 3.20 -5.691 -5.687 -5.681 -5.668 -5.651  8.35389 15.98972 -7.68427   0.078
 3.32 3.40 -5.660 -5.657 -5.651 -5.640 -5.624  8.48185 16.19260 -7.48145   0.091
 3.32 3.60 -5.626 -5.623 -5.618 -5.609 -5.594  8.60840 16.39489 -7.27919   0.105
 3.32 3.80 -5.588 -5.586 -5.582 -5.573 -5.560  8.73458 16.59677 -7.07731   0.121
 3.32 4.00 -5.546 -5.544 -5.541 -5.534 -5.522  8.86076 16.79824 -6.87582   0.140
 3.32 4.20 -5.505 -5.503 -5.500 -5.493 -5.481  8.98893 16.99933 -6.67473   0.162
 3.32 4.40 -5.458 -5.457 -5.453 -5.446 -5.434  9.11821 17.20022 -6.47383   0.188
 3.32 4.60 -5.407 -5.405 -5.402 -5.395 -5.383  9.24913 17.40096 -6.27308   0.219
 3.32 4.80 -5.351 -5.349 -5.346 -5.339 -5.327  9.38084 17.60159 -6.07244   0.255
 3.32 5.00 -5.288 -5.286 -5.283 -5.276 -5.264  9.51255 17.80209 -5.87193   0.297
 3.32 5.20 -5.218 -5.216 -5.213 -5.206 -5.195  9.64273 18.00238 -5.67161   0.345
 3.32 5.40 -5.138 -5.137 -5.134 -5.127 -5.116  9.77131 18.20264 -5.47133   0.400
 3.32 5.60 -5.047 -5.046 -5.042 -5.036 -5.025  9.89724 18.40289 -5.27107   0.462
 3.32 5.80 -4.941 -4.940 -4.936 -4.930 -4.920 10.01946 18.60312 -5.07083   0.532
 3.32 6.00 -4.817 -4.815 -4.812 -4.806 -4.796 10.13862 18.80332 -4.87063   0.611
 3.32 6.25 -4.628 -4.627 -4.624 -4.618 -4.609 10.28278 19.05350 -4.62061   0.721
 3.32 6.50 -4.395 -4.393 -4.391 -4.386 -4.379 10.42292 19.30363 -4.37059   0.847
 3.32 6.75 -4.106 -4.105 -4.103 -4.099 -4.093 10.55955 19.55368 -4.12045   0.992
 3.32 7.00 -3.904 -3.903 -3.902 -3.898 -3.894 10.69346 19.80373 -3.87031   1.157
 3.32 7.25 -3.778 -3.777 -3.776 -3.773 -3.768 10.82512 20.05379 -3.62029   1.346
 3.32 7.50 -3.652 -3.652 -3.650 -3.647 -3.644 10.95506 20.30384 -3.37028   1.563
 3.32 7.75 -3.530 -3.529 -3.527 -3.525 -3.522 11.08378 20.55387 -3.12029   1.813
 3.32 8.00 -3.411 -3.410 -3.409 -3.407 -3.404 11.21112 20.80387 -2.87031   2.099
 3.34-2.00 -5.798 -5.792 -5.780 -5.758 -5.731  4.15715 10.51996-13.15410   0.001
 3.34-1.50 -5.849 -5.843 -5.831 -5.809 -5.782  4.52114 11.02036-12.65384   0.001
 3.34-1.00 -5.878 -5.871 -5.859 -5.837 -5.809  4.92650 11.52114-12.15292   0.001
 3.34-0.50 -5.879 -5.873 -5.860 -5.838 -5.809  5.36605 12.02366-11.65033   0.002
 3.34 0.00 -5.859 -5.852 -5.839 -5.816 -5.788  5.81485 12.53199-11.14213   0.004
 3.34 0.50 -5.823 -5.816 -5.804 -5.782 -5.754  6.25696 13.05269-10.62142   0.007
 3.34 1.00 -5.783 -5.776 -5.764 -5.743 -5.716  6.69609 13.59329-10.08076   0.011
 3.34 1.25 -5.762 -5.755 -5.743 -5.722 -5.696  6.91593 13.87002 -9.80415   0.014
 3.34 1.50 -5.739 -5.732 -5.720 -5.699 -5.673  7.13577 14.14675 -9.52754   0.019
 3.34 1.75 -5.712 -5.705 -5.694 -5.673 -5.648  7.35548 14.42190 -9.25232   0.024
 3.34 2.00 -5.682 -5.675 -5.664 -5.644 -5.619  7.57496 14.69522 -8.97881   0.031
 3.34 2.25 -5.647 -5.640 -5.630 -5.611 -5.586  7.79112 14.96434 -8.70973   0.040
 3.34 2.50 -5.609 -5.603 -5.593 -5.575 -5.551  8.00303 15.23019 -8.44394   0.051
 3.34 2.75 -5.569 -5.564 -5.555 -5.539 -5.516  8.20385 15.49262 -8.18142   0.064
 3.34 3.00 -5.530 -5.525 -5.517 -5.502 -5.481  8.39498 15.75243 -7.92154   0.080
 3.34 3.20 -5.498 -5.494 -5.487 -5.473 -5.454  8.53903 15.95858 -7.71546   0.095
 3.34 3.40 -5.466 -5.462 -5.456 -5.444 -5.426  8.67777 16.16364 -7.51046   0.111
 3.34 3.60 -5.433 -5.430 -5.424 -5.414 -5.397  8.81077 16.36765 -7.30652   0.129
 3.34 3.80 -5.398 -5.396 -5.391 -5.382 -5.367  8.94038 16.57094 -7.10327   0.150
 3.34 4.00 -5.362 -5.360 -5.356 -5.348 -5.335  9.06781 16.77357 -6.90067   0.174
 3.34 4.20 -5.328 -5.326 -5.322 -5.314 -5.302  9.19328 16.97567 -6.69855   0.201
 3.34 4.40 -5.290 -5.289 -5.285 -5.277 -5.265  9.31874 17.17737 -6.49682   0.233
 3.34 4.60 -5.250 -5.248 -5.245 -5.237 -5.225  9.44457 17.37867 -6.29544   0.269
 3.34 4.80 -5.206 -5.205 -5.201 -5.194 -5.181  9.57126 17.57972 -6.09433   0.311
 3.34 5.00 -5.158 -5.156 -5.153 -5.145 -5.133  9.69862 17.78053 -5.89347   0.360
 3.34 5.20 -5.106 -5.104 -5.101 -5.093 -5.081  9.82765 17.98119 -5.69289   0.417
 3.34 5.40 -5.049 -5.047 -5.044 -5.037 -5.025  9.95668 18.18172 -5.49242   0.484
 3.34 5.60 -4.988 -4.986 -4.983 -4.975 -4.964 10.08528 18.38215 -5.29204   0.561
 3.34 5.80 -4.922 -4.921 -4.917 -4.910 -4.899 10.21251 18.58250 -5.09171   0.649
 3.34 6.00 -4.854 -4.852 -4.849 -4.842 -4.831 10.33846 18.78276 -4.89144   0.751
 3.34 6.25 -4.766 -4.764 -4.761 -4.755 -4.744 10.49096 19.03292 -4.64115   0.895
 3.34 6.50 -4.676 -4.674 -4.671 -4.665 -4.655 10.63919 19.28308 -4.39094   1.062
 3.34 6.75 -4.585 -4.583 -4.581 -4.574 -4.565 10.78258 19.53328 -4.14085   1.252
 3.34 7.00 -4.494 -4.493 -4.490 -4.484 -4.476 10.92215 19.78348 -3.89076   1.470
 3.34 7.25 -4.404 -4.402 -4.400 -4.394 -4.387 11.05827 20.03350 -3.64064   1.720
 3.34 7.50 -4.314 -4.313 -4.310 -4.305 -4.298 11.19173 20.28353 -3.39051   2.006
 3.34 7.75 -4.226 -4.224 -4.222 -4.217 -4.211 11.32324 20.53359 -3.14045   2.334
 3.34 8.00 -4.138 -4.136 -4.134 -4.130 -4.124 11.45255 20.78369 -2.89042   2.708
 3.36-2.00 -5.634 -5.628 -5.615 -5.593 -5.566  4.42045 10.49996-13.17418   0.001
 3.36-1.50 -5.703 -5.696 -5.683 -5.661 -5.633  4.74966 10.99996-12.67407   0.001
 3.36-1.00 -5.758 -5.751 -5.738 -5.716 -5.687  5.09202 11.50024-12.17380   0.002
 3.36-0.50 -5.787 -5.780 -5.767 -5.744 -5.715  5.46657 12.00130-11.67285   0.003
 3.36 0.00 -5.778 -5.771 -5.758 -5.735 -5.706  5.88213 12.50406-11.17005   0.004
 3.36 0.50 -5.736 -5.729 -5.716 -5.693 -5.665  6.32346 13.01242-10.66194   0.007
 3.36 1.00 -5.672 -5.665 -5.652 -5.630 -5.602  6.76886 13.53339-10.14068   0.012
 3.36 1.25 -5.636 -5.629 -5.616 -5.593 -5.566  6.99095 13.80201 -9.87206   0.016
 3.36 1.50 -5.599 -5.591 -5.578 -5.556 -5.528  7.21245 14.07445 -9.59964   0.020
 3.36 1.75 -5.560 -5.553 -5.541 -5.518 -5.490  7.43309 14.35116 -9.32294   0.026
 3.36 2.00 -5.521 -5.514 -5.502 -5.480 -5.453  7.65263 14.62788 -9.04624   0.033
 3.36 2.25 -5.480 -5.474 -5.462 -5.441 -5.414  7.87065 14.90292 -8.77118   0.043
 3.36 2.50 -5.437 -5.431 -5.420 -5.401 -5.375  8.08672 15.17609 -8.49798   0.055
 3.36 2.75 -5.390 -5.385 -5.375 -5.357 -5.333  8.30030 15.44513 -8.22904   0.070
 3.36 3.00 -5.341 -5.336 -5.328 -5.312 -5.289  8.50987 15.71088 -7.96337   0.089
 3.36 3.20 -5.301 -5.297 -5.289 -5.275 -5.254  8.67127 15.92086 -7.75329   0.107
 3.36 3.40 -5.261 -5.257 -5.251 -5.238 -5.219  8.82719 16.12919 -7.54487   0.129
 3.36 3.60 -5.222 -5.218 -5.212 -5.201 -5.184  8.97641 16.33595 -7.33811   0.153
 3.36 3.80 -5.182 -5.179 -5.174 -5.164 -5.148  9.11902 16.54153 -7.13257   0.180
 3.36 4.00 -5.142 -5.140 -5.136 -5.127 -5.113  9.25624 16.74601 -6.92812   0.211
 3.36 4.20 -5.106 -5.104 -5.100 -5.091 -5.078  9.38791 16.94952 -6.72455   0.246
 3.36 4.40 -5.068 -5.066 -5.062 -5.054 -5.041  9.51688 17.15239 -6.52165   0.285
 3.36 4.60 -5.028 -5.026 -5.023 -5.015 -5.002  9.64279 17.35468 -6.31940   0.330
 3.36 4.80 -4.987 -4.985 -4.981 -4.973 -4.961  9.76767 17.55657 -6.11759   0.380
 3.36 5.00 -4.941 -4.939 -4.935 -4.928 -4.915  9.89254 17.75808 -5.91614   0.439
 3.36 5.20 -4.891 -4.890 -4.886 -4.878 -4.866 10.01756 17.95923 -5.71492   0.507
 3.36 5.40 -4.837 -4.835 -4.831 -4.824 -4.812 10.14279 18.16016 -5.51393   0.586
 3.36 5.60 -4.776 -4.774 -4.771 -4.764 -4.752 10.26884 18.36091 -5.31321   0.678
 3.36 5.80 -4.710 -4.708 -4.705 -4.698 -4.686 10.39558 18.56153 -5.11266   0.784
 3.36 6.00 -4.639 -4.638 -4.634 -4.627 -4.616 10.52231 18.76200 -4.91222   0.907
 3.36 6.25 -4.545 -4.544 -4.541 -4.534 -4.524 10.67903 19.01238 -4.66177   1.086
 3.36 6.50 -4.448 -4.446 -4.443 -4.437 -4.428 10.83379 19.26269 -4.41139   1.298
 3.36 6.75 -4.349 -4.348 -4.345 -4.339 -4.331 10.98416 19.51297 -4.16106   1.543
 3.36 7.00 -4.251 -4.250 -4.247 -4.242 -4.234 11.13066 19.76320 -3.91080   1.827
 3.36 7.25 -4.154 -4.153 -4.150 -4.146 -4.139 11.27258 20.01330 -3.66070   2.151
 3.36 7.50 -4.060 -4.058 -4.056 -4.052 -4.046 11.41095 20.26340 -3.41061   2.523
 3.36 7.75 -3.968 -3.966 -3.964 -3.960 -3.955 11.54642 20.51352 -3.16052   2.949
 3.36 8.00 -3.878 -3.877 -3.875 -3.871 -3.866 11.67879 20.76365 -2.91045   3.434
 3.38-2.00 -5.475 -5.468 -5.456 -5.433 -5.406  4.66153 10.47986-13.19423   0.001
 3.38-1.50 -5.541 -5.534 -5.521 -5.498 -5.471  5.00732 10.97987-12.69422   0.002
 3.38-1.00 -5.606 -5.599 -5.586 -5.563 -5.534  5.33746 11.48001-12.19409   0.002
 3.38-0.50 -5.657 -5.650 -5.636 -5.612 -5.583  5.66848 11.98028-11.69379   0.003
 3.38 0.00 -5.677 -5.669 -5.656 -5.632 -5.602  6.01995 12.48130-11.19280   0.005
 3.38 0.50 -5.653 -5.646 -5.632 -5.609 -5.580  6.40892 12.98426-10.68973   0.008
 3.38 1.00 -5.586 -5.578 -5.565 -5.542 -5.513  6.83468 13.49318-10.18098   0.013
 3.38 1.25 -5.539 -5.531 -5.518 -5.494 -5.465  7.05584 13.75227 -9.92189   0.017
 3.38 1.50 -5.486 -5.478 -5.465 -5.441 -5.412  7.27830 14.01536 -9.65876   0.021
 3.38 1.75 -5.430 -5.422 -5.409 -5.386 -5.356  7.50161 14.28468 -9.38945   0.027
 3.38 2.00 -5.373 -5.366 -5.353 -5.331 -5.301  7.72493 14.55763 -9.11651   0.035
 3.38 2.25 -5.318 -5.311 -5.299 -5.278 -5.249  7.94656 14.83445 -8.83970   0.045
 3.38 2.50 -5.263 -5.257 -5.246 -5.226 -5.199  8.16643 15.11126 -8.56288   0.059
 3.38 2.75 -5.209 -5.203 -5.193 -5.175 -5.150  8.38310 15.38608 -8.28804   0.076
 3.38 3.00 -5.153 -5.148 -5.139 -5.123 -5.099  8.59682 15.65877 -8.01529   0.097
 3.38 3.20 -5.106 -5.102 -5.094 -5.079 -5.057  8.76595 15.87386 -7.80026   0.118
 3.38 3.40 -5.059 -5.055 -5.048 -5.034 -5.014  8.93235 16.08685 -7.58731   0.142
 3.38 3.60 -5.010 -5.006 -5.000 -4.988 -4.970  9.09529 16.29765 -7.37652   0.171
 3.38 3.80 -4.960 -4.957 -4.951 -4.941 -4.924  9.25313 16.50660 -7.16754   0.205
 3.38 4.00 -4.910 -4.908 -4.903 -4.894 -4.879  9.40603 16.71391 -6.96019   0.245
 3.38 4.20 -4.865 -4.863 -4.858 -4.850 -4.836  9.55156 16.91977 -6.75430   0.290
 3.38 4.40 -4.820 -4.818 -4.814 -4.805 -4.792  9.69182 17.12458 -6.54947   0.340
 3.38 4.60 -4.775 -4.773 -4.770 -4.761 -4.748  9.82638 17.32842 -6.34566   0.397
 3.38 4.80 -4.731 -4.729 -4.725 -4.718 -4.705  9.95697 17.53157 -6.14254   0.462
 3.38 5.00 -4.684 -4.683 -4.679 -4.671 -4.659 10.08458 17.73408 -5.94006   0.535
 3.38 5.20 -4.636 -4.635 -4.631 -4.623 -4.611 10.20924 17.93605 -5.73809   0.618
 3.38 5.40 -4.584 -4.582 -4.579 -4.571 -4.559 10.33351 18.13764 -5.53648   0.713
 3.38 5.60 -4.527 -4.525 -4.522 -4.515 -4.503 10.45742 18.33888 -5.33519   0.823
 3.38 5.80 -4.465 -4.463 -4.460 -4.453 -4.442 10.58126 18.53988 -5.13413   0.949
 3.38 6.00 -4.397 -4.396 -4.393 -4.386 -4.376 10.70509 18.74068 -4.93330   1.094
 3.38 6.25 -4.306 -4.305 -4.302 -4.296 -4.286 10.86065 18.99146 -4.68256   1.308
 3.38 6.50 -4.209 -4.208 -4.205 -4.199 -4.190 11.01620 19.24205 -4.43203   1.565
 3.38 6.75 -4.108 -4.107 -4.105 -4.099 -4.091 11.17006 19.49247 -4.18174   1.868
 3.38 7.00 -4.007 -4.005 -4.003 -3.998 -3.991 11.32201 19.74280 -3.93144   2.225
 3.38 7.25 -3.906 -3.904 -3.902 -3.898 -3.891 11.46978 19.99308 -3.68115   2.638
 3.38 7.50 -3.807 -3.806 -3.804 -3.800 -3.794 11.61395 20.24329 -3.43086   3.115
 3.38 7.75 -3.712 -3.711 -3.709 -3.705 -3.700 11.75433 20.49343 -3.18073   3.661
 3.38 8.00 -3.620 -3.619 -3.617 -3.614 -3.609 11.89098 20.74351 -2.93070   4.284
 3.40-2.00 -5.345 -5.338 -5.326 -5.304 -5.278  4.83078 10.45984-13.21424   0.001
 3.40-1.50 -5.395 -5.388 -5.375 -5.352 -5.325  5.21958 10.95985-12.71422   0.002
 3.40-1.00 -5.452 -5.445 -5.431 -5.408 -5.379  5.57830 11.45985-12.21417   0.003
 3.40-0.50 -5.507 -5.500 -5.486 -5.461 -5.432  5.91450 11.96000-11.71399   0.004
 3.40 0.00 -5.543 -5.536 -5.522 -5.497 -5.467  6.24204 12.46045-11.21375   0.006
 3.40 0.50 -5.543 -5.536 -5.522 -5.497 -5.467  6.57910 12.96142-10.71265   0.009
 3.40 1.00 -5.495 -5.487 -5.473 -5.449 -5.419  6.94512 13.46494-10.20922   0.014
 3.40 1.25 -5.451 -5.443 -5.429 -5.404 -5.374  7.14385 13.71869 -9.95542   0.018
 3.40 1.50 -5.395 -5.387 -5.373 -5.348 -5.318  7.35122 13.97460 -9.69940   0.022
 3.40 1.75 -5.328 -5.321 -5.307 -5.283 -5.253  7.56748 14.23463 -9.43940   0.029
 3.40 2.00 -5.256 -5.249 -5.236 -5.212 -5.183  7.78767 14.49886 -9.17522   0.037
 3.40 2.25 -5.181 -5.174 -5.162 -5.140 -5.112  8.01122 14.76931 -8.90482   0.048
 3.40 2.50 -5.106 -5.100 -5.089 -5.069 -5.042  8.23477 15.04297 -8.63116   0.062
 3.40 2.75 -5.033 -5.028 -5.018 -4.999 -4.974  8.45676 15.31978 -8.35429   0.080
 3.40 3.00 -4.962 -4.957 -4.948 -4.931 -4.908  8.67688 15.59660 -8.07743   0.103
 3.40 3.20 -4.905 -4.901 -4.893 -4.877 -4.856  8.84959 15.81631 -7.85778   0.126
 3.40 3.40 -4.849 -4.845 -4.837 -4.824 -4.803  9.01990 16.03449 -7.63968   0.153
 3.40 3.60 -4.791 -4.788 -4.781 -4.769 -4.750  9.18805 16.25051 -7.42367   0.186
 3.40 3.80 -4.733 -4.730 -4.724 -4.713 -4.696  9.35359 16.46395 -7.21014   0.225
 3.40 4.00 -4.673 -4.670 -4.666 -4.656 -4.641  9.51614 16.67532 -6.99870   0.272
 3.40 4.20 -4.617 -4.614 -4.610 -4.601 -4.587  9.67466 16.88462 -6.78949   0.326
 3.40 4.40 -4.561 -4.558 -4.554 -4.546 -4.532  9.82860 17.09235 -6.58184   0.390
 3.40 4.60 -4.506 -4.504 -4.501 -4.493 -4.480  9.97696 17.29854 -6.37570   0.462
 3.40 4.80 -4.454 -4.453 -4.449 -4.441 -4.429 10.11937 17.50360 -6.17065   0.545
 3.40 5.00 -4.403 -4.401 -4.397 -4.390 -4.378 10.25672 17.70766 -5.96658   0.638
 3.40 5.20 -4.352 -4.350 -4.347 -4.340 -4.328 10.38858 17.91087 -5.76332   0.742
 3.40 5.40 -4.300 -4.298 -4.295 -4.288 -4.277 10.51735 18.11349 -5.56066   0.861
 3.40 5.60 -4.245 -4.244 -4.240 -4.234 -4.223 10.64290 18.31555 -5.35855   0.995
 3.40 5.80 -4.187 -4.186 -4.183 -4.176 -4.166 10.76690 18.51724 -5.15682   1.148
 3.40 6.00 -4.125 -4.124 -4.121 -4.115 -4.105 10.89003 18.71859 -4.95546   1.323
 3.40 6.25 -4.042 -4.041 -4.038 -4.032 -4.024 11.04311 18.96990 -4.70418   1.578
 3.40 6.50 -3.952 -3.951 -3.949 -3.943 -3.935 11.19618 19.22089 -4.45321   1.882
 3.40 6.75 -3.857 -3.856 -3.854 -3.849 -3.841 11.34924 19.47159 -4.20249   2.244
 3.40 7.00 -3.758 -3.757 -3.755 -3.751 -3.744 11.50229 19.72214 -3.95195   2.676
 3.40 7.25 -3.658 -3.657 -3.655 -3.651 -3.645 11.65314 19.97262 -3.70155   3.184
 3.40 7.50 -3.558 -3.557 -3.555 -3.552 -3.546 11.80182 20.22298 -3.45124   3.779
 3.40 7.75 -3.461 -3.460 -3.458 -3.455 -3.450 11.94676 20.47320 -3.20098   4.465
 3.40 8.00 -3.367 -3.366 -3.364 -3.361 -3.357 12.08849 20.72329 -2.95078   5.255
 3.42-2.00 -5.249 -5.243 -5.231 -5.209 -5.184  4.92717 10.43996-13.23418   0.001
 3.42-1.50 -5.279 -5.273 -5.260 -5.238 -5.211  5.35774 10.93992-12.73424   0.002
 3.42-1.00 -5.319 -5.312 -5.298 -5.275 -5.248  5.76110 11.43996-12.23418   0.004
 3.42-0.50 -5.363 -5.355 -5.342 -5.317 -5.288  6.13322 11.93997-11.73424   0.005
 3.42 0.00 -5.399 -5.391 -5.377 -5.352 -5.322  6.47842 12.44012-11.23396   0.008
 3.42 0.50 -5.409 -5.401 -5.386 -5.361 -5.330  6.80740 12.94052-10.73353   0.012
 3.42 1.00 -5.375 -5.367 -5.353 -5.327 -5.296  7.13672 13.44185-10.23225   0.017
 3.42 1.25 -5.339 -5.331 -5.317 -5.291 -5.260  7.30816 13.69333 -9.98080   0.021
 3.42 1.50 -5.290 -5.282 -5.268 -5.243 -5.212  7.48615 13.94576 -9.72839   0.026
 3.42 1.75 -5.228 -5.220 -5.207 -5.182 -5.152  7.67486 14.20019 -9.47397   0.032
 3.42 2.00 -5.154 -5.147 -5.134 -5.110 -5.080  7.87309 14.45713 -9.21703   0.040
 3.42 2.25 -5.069 -5.062 -5.050 -5.028 -5.000  8.08269 14.71841 -8.95576   0.051
 3.42 2.50 -4.977 -4.971 -4.960 -4.940 -4.913  8.29863 14.98403 -8.69016   0.065
 3.42 2.75 -4.882 -4.876 -4.866 -4.848 -4.823  8.52088 15.25601 -8.41810   0.084
 3.42 3.00 -4.787 -4.782 -4.773 -4.756 -4.732  8.74312 15.53058 -8.14351   0.109
 3.42 3.20 -4.712 -4.707 -4.699 -4.684 -4.662  8.92014 15.75204 -7.92213   0.134
 3.42 3.40 -4.639 -4.635 -4.628 -4.614 -4.594  9.09619 15.97349 -7.70076   0.164
 3.42 3.60 -4.568 -4.564 -4.558 -4.545 -4.527  9.27005 16.19399 -7.48028   0.200
 3.42 3.80 -4.498 -4.495 -4.489 -4.478 -4.462  9.44040 16.41218 -7.26203   0.243
 3.42 4.00 -4.430 -4.427 -4.422 -4.412 -4.398  9.60799 16.62859 -7.04552   0.295
 3.42 4.20 -4.365 -4.363 -4.358 -4.349 -4.336  9.77289 16.84226 -6.83185   0.357
 3.42 4.40 -4.300 -4.298 -4.294 -4.286 -4.273  9.93452 17.05390 -6.62020   0.430
 3.42 4.60 -4.237 -4.235 -4.231 -4.224 -4.212 10.09279 17.26347 -6.41057   0.516
 3.42 4.80 -4.176 -4.174 -4.171 -4.164 -4.152 10.24686 17.47137 -6.20258   0.616
 3.42 5.00 -4.116 -4.115 -4.111 -4.104 -4.094 10.39655 17.67779 -5.99611   0.732
 3.42 5.20 -4.059 -4.058 -4.055 -4.048 -4.038 10.54004 17.88294 -5.79104   0.864
 3.42 5.40 -4.003 -4.002 -3.999 -3.992 -3.983 10.67876 18.08717 -5.58691   1.013
 3.42 5.60 -3.947 -3.946 -3.943 -3.937 -3.928 10.81233 18.29051 -5.38364   1.181
 3.42 5.80 -3.891 -3.889 -3.887 -3.881 -3.872 10.94201 18.49324 -5.18096   1.372
 3.42 6.00 -3.832 -3.831 -3.829 -3.823 -3.815 11.06856 18.69539 -4.97881   1.587
 3.42 6.25 -3.756 -3.755 -3.753 -3.748 -3.740 11.22294 18.94738 -4.72669   1.896
 3.42 6.50 -3.676 -3.674 -3.672 -3.668 -3.660 11.37566 19.19893 -4.47509   2.261
 3.42 6.75 -3.590 -3.589 -3.587 -3.582 -3.576 11.52746 19.45024 -4.22395   2.693
 3.42 7.00 -3.499 -3.498 -3.496 -3.492 -3.486 11.67852 19.70122 -3.97306   3.204
 3.42 7.25 -3.405 -3.404 -3.402 -3.398 -3.393 11.82924 19.95176 -3.72231   3.811
 3.42 7.50 -3.309 -3.308 -3.306 -3.303 -3.298 11.97909 20.20222 -3.47173   4.529
 3.42 7.75 -3.213 -3.212 -3.210 -3.207 -3.202 12.12653 20.45265 -3.22130   5.367
 3.42 8.00 -3.119 -3.118 -3.117 -3.114 -3.109 12.27207 20.70303 -2.97102   6.345
 3.44-2.00 -5.185 -5.178 -5.167 -5.146 -5.122  4.96483 10.41996-13.25415   0.001
 3.44-1.50 -5.196 -5.189 -5.177 -5.156 -5.130  5.43201 10.91986-12.75424   0.002
 3.44-1.00 -5.216 -5.210 -5.197 -5.174 -5.147  5.87413 11.41996-12.25415   0.004
 3.44-0.50 -5.243 -5.235 -5.222 -5.199 -5.170  6.28981 11.91991-11.75424   0.006
 3.44 0.00 -5.266 -5.258 -5.244 -5.220 -5.190  6.67505 12.41996-11.25407   0.010
 3.44 0.50 -5.271 -5.263 -5.248 -5.223 -5.193  7.03020 12.92012-10.75399   0.015
 3.44 1.00 -5.238 -5.230 -5.216 -5.190 -5.159  7.36361 13.42062-10.25344   0.022
 3.44 1.25 -5.204 -5.196 -5.182 -5.157 -5.125  7.52686 13.67121-10.00282   0.027
 3.44 1.50 -5.158 -5.151 -5.137 -5.112 -5.081  7.69011 13.92221 -9.75178   0.032
 3.44 1.75 -5.100 -5.093 -5.079 -5.055 -5.025  7.85716 14.17402 -9.49997   0.039
 3.44 2.00 -5.030 -5.024 -5.011 -4.988 -4.958  8.02857 14.42700 -9.24703   0.047
 3.44 2.25 -4.948 -4.941 -4.929 -4.908 -4.880  8.20938 14.68227 -8.99183   0.058
 3.44 2.50 -4.853 -4.847 -4.836 -4.816 -4.790  8.39933 14.94042 -8.73377   0.072
 3.44 2.75 -4.747 -4.742 -4.732 -4.714 -4.689  8.60181 15.20349 -8.47062   0.091
 3.44 3.00 -4.634 -4.629 -4.620 -4.603 -4.580  8.81231 15.47100 -8.20301   0.116
 3.44 3.20 -4.541 -4.536 -4.528 -4.513 -4.492  8.98785 15.68978 -7.98421   0.141
 3.44 3.40 -4.449 -4.445 -4.437 -4.424 -4.404  9.16338 15.90962 -7.76436   0.173
