 ROSSELAND MASS ABSORPTION COEFFICIENTS [-0.1]
 logT logP  0km/s  1km/s  2km/s  4km/s  8km/s  log Ne   log Na  log rho IPloCM-1
 3.32-2.00 -5.261 -5.250 -5.232 -5.203 -5.169  5.20737 10.54008-13.12755   0.002
 3.32-1.50 -5.290 -5.278 -5.259 -5.228 -5.192  5.63084 11.04100-12.62672   0.003
 3.32-1.00 -5.330 -5.317 -5.296 -5.265 -5.229  6.03822 11.54382-12.12378   0.005
 3.32-0.50 -5.371 -5.357 -5.336 -5.304 -5.268  6.44279 12.05192-11.61547   0.009
 3.32 0.00 -5.395 -5.381 -5.360 -5.328 -5.291  6.86338 12.57345-11.09415   0.014
 3.32 0.50 -5.395 -5.381 -5.360 -5.328 -5.291  7.30492 13.11461-10.55300   0.023
 3.32 1.00 -5.382 -5.367 -5.346 -5.314 -5.277  7.73231 13.66811 -9.99957   0.038
 3.32 1.25 -5.373 -5.358 -5.338 -5.306 -5.269  7.92804 13.94310 -9.72452   0.048
 3.32 1.50 -5.363 -5.349 -5.328 -5.297 -5.261  8.11327 14.21617 -9.45136   0.059
 3.32 1.75 -5.350 -5.336 -5.316 -5.285 -5.250  8.28750 14.48512 -9.18247   0.072
 3.32 2.00 -5.333 -5.320 -5.301 -5.271 -5.237  8.45591 14.75082 -8.91686   0.088
 3.32 2.25 -5.311 -5.298 -5.280 -5.252 -5.219  8.61887 15.01310 -8.65459   0.106
 3.32 2.50 -5.284 -5.271 -5.254 -5.228 -5.196  8.78183 15.27277 -8.39491   0.128
 3.32 2.75 -5.249 -5.237 -5.220 -5.195 -5.165  8.94502 15.53018 -8.13748   0.155
 3.32 3.00 -5.206 -5.195 -5.179 -5.156 -5.127  9.10857 15.78590 -7.88174   0.187
 3.32 3.20 -5.164 -5.153 -5.139 -5.117 -5.090  9.24163 15.98947 -7.67818   0.218
 3.32 3.40 -5.117 -5.107 -5.093 -5.073 -5.047  9.37469 16.19238 -7.47528   0.254
 3.32 3.60 -5.063 -5.054 -5.041 -5.022 -4.998  9.50737 16.39463 -7.27299   0.296
 3.32 3.80 -5.002 -4.994 -4.983 -4.966 -4.943  9.63872 16.59645 -7.07113   0.344
 3.32 4.00 -4.936 -4.929 -4.920 -4.904 -4.883  9.76879 16.79789 -6.86967   0.399
 3.32 4.20 -4.873 -4.866 -4.857 -4.842 -4.820  9.89484 16.99905 -6.66854   0.461
 3.32 4.40 -4.804 -4.798 -4.789 -4.774 -4.753 10.01779 17.19999 -6.46762   0.531
 3.32 4.60 -4.733 -4.727 -4.719 -4.703 -4.683 10.13721 17.40073 -6.26690   0.609
 3.32 4.80 -4.659 -4.653 -4.644 -4.629 -4.608 10.25331 17.60134 -6.06630   0.697
 3.32 5.00 -4.578 -4.572 -4.563 -4.548 -4.528 10.36661 17.80182 -5.86582   0.794
 3.32 5.20 -4.489 -4.484 -4.475 -4.461 -4.440 10.47735 18.00215 -5.66545   0.902
 3.32 5.40 -4.391 -4.385 -4.377 -4.363 -4.343 10.58618 18.20243 -5.46515   1.022
 3.32 5.60 -4.279 -4.274 -4.267 -4.253 -4.233 10.69318 18.40267 -5.26490   1.156
 3.32 5.80 -4.152 -4.147 -4.140 -4.128 -4.109 10.79888 18.60288 -5.06470   1.306
 3.32 6.00 -4.005 -4.001 -3.995 -3.984 -3.967 10.90342 18.80305 -4.86455   1.473
 3.32 6.25 -3.789 -3.786 -3.780 -3.771 -3.756 11.03281 19.05312 -4.61441   1.709
 3.32 6.50 -3.526 -3.523 -3.519 -3.511 -3.499 11.16107 19.30320 -4.36432   1.981
 3.32 6.75 -3.206 -3.204 -3.201 -3.195 -3.185 11.28837 19.55329 -4.11427   2.294
 3.32 7.00 -3.002 -3.000 -2.997 -2.992 -2.984 11.41497 19.80339 -3.86423   2.654
 3.32 7.25 -2.891 -2.890 -2.887 -2.883 -2.876 11.54113 20.05340 -3.61418   3.069
 3.32 7.50 -2.786 -2.785 -2.782 -2.778 -2.772 11.66671 20.30341 -3.36411   3.547
 3.32 7.75 -2.685 -2.683 -2.681 -2.677 -2.672 11.79161 20.55346 -3.11403   4.096
 3.32 8.00 -2.586 -2.585 -2.583 -2.579 -2.575 11.91587 20.80353 -2.86391   4.725
 3.34-2.00 -5.193 -5.183 -5.167 -5.140 -5.106  5.27370 10.51970-13.14795   0.002
 3.34-1.50 -5.207 -5.196 -5.178 -5.148 -5.111  5.71700 11.01995-12.64762   0.004
 3.34-1.00 -5.225 -5.212 -5.192 -5.159 -5.121  6.14706 11.52088-12.14679   0.006
 3.34-0.50 -5.247 -5.233 -5.211 -5.177 -5.137  6.55979 12.02366-11.64397   0.010
 3.34 0.00 -5.264 -5.248 -5.225 -5.190 -5.150  6.96511 12.53161-11.13596   0.015
 3.34 0.50 -5.254 -5.238 -5.215 -5.179 -5.139  7.37949 13.05231-10.61529   0.025
 3.34 1.00 -5.208 -5.191 -5.168 -5.132 -5.092  7.81471 13.59306-10.07453   0.041
 3.34 1.25 -5.174 -5.158 -5.135 -5.100 -5.059  8.03082 13.86975 -9.79791   0.052
 3.34 1.50 -5.141 -5.124 -5.102 -5.067 -5.027  8.24452 14.14644 -9.52129   0.067
 3.34 1.75 -5.107 -5.091 -5.069 -5.035 -4.996  8.44358 14.42159 -9.24611   0.084
 3.34 2.00 -5.075 -5.060 -5.038 -5.006 -4.968  8.63215 14.69496 -8.97265   0.105
 3.34 2.25 -5.044 -5.028 -5.007 -4.976 -4.940  8.80856 14.96409 -8.70354   0.129
 3.34 2.50 -5.012 -4.997 -4.977 -4.947 -4.913  8.97804 15.22994 -8.43771   0.157
 3.34 2.75 -4.977 -4.962 -4.943 -4.915 -4.882  9.14126 15.49238 -8.17526   0.189
 3.34 3.00 -4.938 -4.924 -4.906 -4.880 -4.848  9.30320 15.75220 -7.91543   0.228
 3.34 3.20 -4.901 -4.888 -4.871 -4.846 -4.816  9.43208 15.95836 -7.70925   0.264
 3.34 3.40 -4.859 -4.848 -4.832 -4.808 -4.779  9.56097 16.16341 -7.50420   0.306
 3.34 3.60 -4.812 -4.801 -4.787 -4.765 -4.738  9.69061 16.36741 -7.30025   0.356
 3.34 3.80 -4.758 -4.749 -4.736 -4.716 -4.690  9.82100 16.57068 -7.09705   0.414
 3.34 4.00 -4.698 -4.691 -4.680 -4.662 -4.638  9.95139 16.77328 -6.89449   0.481
 3.34 4.20 -4.642 -4.635 -4.625 -4.608 -4.584 10.08091 16.97528 -6.69240   0.559
 3.34 4.40 -4.583 -4.576 -4.566 -4.549 -4.526 10.20939 17.17692 -6.49069   0.648
 3.34 4.60 -4.523 -4.517 -4.507 -4.491 -4.468 10.33578 17.37825 -6.28935   0.749
 3.34 4.80 -4.464 -4.458 -4.449 -4.432 -4.410 10.45882 17.57936 -6.08826   0.863
 3.34 5.00 -4.403 -4.397 -4.388 -4.372 -4.349 10.57910 17.78025 -5.88739   0.991
 3.34 5.20 -4.342 -4.336 -4.327 -4.312 -4.289 10.69594 17.98094 -5.68673   1.134
 3.34 5.40 -4.279 -4.273 -4.265 -4.249 -4.227 10.81016 18.18149 -5.48618   1.293
 3.34 5.60 -4.214 -4.209 -4.201 -4.186 -4.164 10.92175 18.38191 -5.28573   1.470
 3.34 5.80 -4.148 -4.143 -4.135 -4.121 -4.099 11.03127 18.58223 -5.08535   1.667
 3.34 6.00 -4.080 -4.076 -4.068 -4.054 -4.034 11.13893 18.78247 -4.88506   1.887
 3.34 6.25 -3.995 -3.990 -3.983 -3.970 -3.950 11.27131 19.03267 -4.63485   2.198
 3.34 6.50 -3.907 -3.903 -3.896 -3.884 -3.865 11.40192 19.28285 -4.38468   2.555
 3.34 6.75 -3.819 -3.815 -3.808 -3.797 -3.779 11.53120 19.53303 -4.13452   2.965
 3.34 7.00 -3.730 -3.726 -3.720 -3.709 -3.692 11.65935 19.78319 -3.88439   3.436
 3.34 7.25 -3.641 -3.638 -3.632 -3.621 -3.606 11.78655 20.03325 -3.63438   3.978
 3.34 7.50 -3.552 -3.549 -3.543 -3.533 -3.519 11.91291 20.28330 -3.38437   4.601
 3.34 7.75 -3.463 -3.460 -3.454 -3.445 -3.432 12.03856 20.53335 -3.13425   5.317
 3.34 8.00 -3.374 -3.371 -3.366 -3.357 -3.345 12.16346 20.78340 -2.88406   6.140
 3.36-2.00 -5.096 -5.087 -5.072 -5.045 -5.012  5.38739 10.49955-13.16800   0.002
 3.36-1.50 -5.135 -5.125 -5.108 -5.080 -5.044  5.79323 10.99965-12.66797   0.004
 3.36-1.00 -5.149 -5.138 -5.119 -5.088 -5.049  6.22583 11.49996-12.16762   0.006
 3.36-0.50 -5.153 -5.140 -5.119 -5.085 -5.043  6.65725 12.00087-11.66675   0.011
 3.36 0.00 -5.149 -5.134 -5.111 -5.074 -5.031  7.07408 12.50365-11.16387   0.017
 3.36 0.50 -5.124 -5.107 -5.082 -5.044 -5.000  7.48173 13.01199-10.65561   0.027
 3.36 1.00 -5.059 -5.041 -5.015 -4.977 -4.932  7.89382 13.53314-10.13448   0.044
 3.36 1.25 -5.010 -4.992 -4.967 -4.929 -4.885  8.10864 13.80169 -9.86588   0.056
 3.36 1.50 -4.953 -4.936 -4.911 -4.873 -4.830  8.32346 14.07408 -9.59346   0.072
 3.36 1.75 -4.892 -4.875 -4.851 -4.814 -4.772  8.53809 14.35083 -9.31673   0.092
 3.36 2.00 -4.833 -4.816 -4.792 -4.756 -4.716  8.75236 14.62757 -9.04001   0.118
 3.36 2.25 -4.776 -4.759 -4.736 -4.702 -4.663  8.95258 14.90263 -8.76493   0.149
 3.36 2.50 -4.724 -4.708 -4.686 -4.653 -4.616  9.14270 15.17580 -8.49174   0.185
 3.36 2.75 -4.675 -4.659 -4.639 -4.608 -4.572  9.32046 15.44481 -8.22274   0.227
 3.36 3.00 -4.628 -4.614 -4.594 -4.565 -4.531  9.49066 15.71054 -7.95703   0.277
 3.36 3.20 -4.589 -4.576 -4.557 -4.530 -4.497  9.62154 15.92056 -7.74701   0.322
 3.36 3.40 -4.549 -4.536 -4.519 -4.493 -4.462  9.75096 16.12893 -7.53865   0.373
 3.36 3.60 -4.505 -4.494 -4.478 -4.454 -4.424  9.87886 16.33570 -7.33192   0.433
 3.36 3.80 -4.456 -4.446 -4.433 -4.411 -4.383 10.00636 16.54129 -7.12637   0.501
 3.36 4.00 -4.402 -4.395 -4.383 -4.364 -4.338 10.13386 16.74578 -6.92191   0.580
 3.36 4.20 -4.352 -4.345 -4.334 -4.315 -4.290 10.26189 16.94929 -6.71834   0.672
 3.36 4.40 -4.298 -4.291 -4.280 -4.263 -4.239 10.38992 17.15215 -6.51542   0.779
 3.36 4.60 -4.242 -4.236 -4.226 -4.209 -4.185 10.51764 17.35441 -6.31311   0.902
 3.36 4.80 -4.186 -4.180 -4.170 -4.154 -4.131 10.64431 17.55629 -6.11122   1.043
 3.36 5.00 -4.126 -4.121 -4.112 -4.096 -4.073 10.76997 17.75778 -5.90974   1.206
 3.36 5.20 -4.067 -4.061 -4.053 -4.037 -4.015 10.89246 17.95896 -5.70865   1.389
 3.36 5.40 -4.004 -3.999 -3.991 -3.976 -3.954 11.01245 18.15992 -5.50775   1.595
 3.36 5.60 -3.940 -3.935 -3.927 -3.913 -3.892 11.12966 18.36065 -5.30701   1.825
 3.36 5.80 -3.874 -3.869 -3.862 -3.848 -3.828 11.24414 18.56124 -5.10638   2.082
 3.36 6.00 -3.806 -3.802 -3.795 -3.782 -3.763 11.35622 18.76170 -4.90588   2.369
 3.36 6.25 -3.720 -3.716 -3.710 -3.698 -3.679 11.49313 19.01213 -4.65546   2.773
 3.36 6.50 -3.633 -3.629 -3.623 -3.612 -3.595 11.62737 19.26245 -4.40517   3.237
 3.36 6.75 -3.545 -3.541 -3.536 -3.525 -3.509 11.75938 19.51271 -4.15500   3.768
 3.36 7.00 -3.456 -3.453 -3.448 -3.438 -3.423 11.88964 19.76291 -3.90483   4.378
 3.36 7.25 -3.367 -3.364 -3.359 -3.350 -3.336 12.01847 20.01305 -3.65461   5.078
 3.36 7.50 -3.279 -3.276 -3.271 -3.263 -3.250 12.14613 20.26316 -3.40439   5.882
 3.36 7.75 -3.190 -3.188 -3.183 -3.175 -3.164 12.27288 20.51327 -3.15424   6.806
 3.36 8.00 -3.103 -3.100 -3.096 -3.089 -3.078 12.39863 20.76335 -2.90413   7.865
 3.38-2.00 -4.932 -4.924 -4.910 -4.885 -4.853  5.60086 10.47958-13.18802   0.003
 3.38-1.50 -5.015 -5.006 -4.990 -4.962 -4.927  5.94606 10.97955-12.68804   0.005
 3.38-1.00 -5.065 -5.055 -5.037 -5.007 -4.970  6.32490 11.47972-12.18789   0.007
 3.38-0.50 -5.079 -5.068 -5.048 -5.015 -4.974  6.73838 11.97996-11.68761   0.011
 3.38 0.00 -5.063 -5.050 -5.028 -4.991 -4.947  7.16495 12.48101-11.18662   0.019
 3.38 0.50 -5.018 -5.002 -4.978 -4.939 -4.892  7.58365 12.98394-10.68361   0.030
 3.38 1.00 -4.929 -4.912 -4.886 -4.845 -4.797  7.99357 13.49276-10.17477   0.048
 3.38 1.25 -4.867 -4.849 -4.823 -4.783 -4.735  8.19905 13.75184 -9.91563   0.061
 3.38 1.50 -4.794 -4.775 -4.749 -4.708 -4.662  8.40535 14.01494 -9.65248   0.077
 3.38 1.75 -4.713 -4.694 -4.668 -4.629 -4.584  8.61820 14.28429 -9.38320   0.098
 3.38 2.00 -4.627 -4.609 -4.583 -4.545 -4.502  8.83110 14.55727 -9.11031   0.126
 3.38 2.25 -4.540 -4.523 -4.498 -4.463 -4.421  9.04403 14.83410 -8.83352   0.161
 3.38 2.50 -4.458 -4.441 -4.418 -4.384 -4.344  9.25696 15.11093 -8.55674   0.206
 3.38 2.75 -4.382 -4.366 -4.345 -4.313 -4.275  9.45702 15.38576 -8.28187   0.260
 3.38 3.00 -4.314 -4.300 -4.280 -4.250 -4.214  9.64748 15.65849 -8.00908   0.324
 3.38 3.20 -4.264 -4.251 -4.232 -4.204 -4.170  9.79059 15.87358 -7.79402   0.382
 3.38 3.40 -4.216 -4.205 -4.188 -4.162 -4.129  9.92869 16.08658 -7.58105   0.447
 3.38 3.60 -4.170 -4.159 -4.144 -4.120 -4.089 10.06152 16.29736 -7.37023   0.521
 3.38 3.80 -4.122 -4.113 -4.100 -4.078 -4.050 10.19138 16.50628 -7.16124   0.606
 3.38 4.00 -4.073 -4.066 -4.055 -4.036 -4.009 10.31931 16.71358 -6.95390   0.702
 3.38 4.20 -4.029 -4.022 -4.012 -3.993 -3.968 10.44561 16.91947 -6.74809   0.812
 3.38 4.40 -3.981 -3.975 -3.965 -3.948 -3.924 10.57176 17.12432 -6.54330   0.938
 3.38 4.60 -3.933 -3.927 -3.918 -3.902 -3.878 10.69785 17.32814 -6.33943   1.085
 3.38 4.80 -3.884 -3.879 -3.870 -3.854 -3.831 10.82388 17.53127 -6.13622   1.254
 3.38 5.00 -3.831 -3.826 -3.818 -3.802 -3.780 10.94978 17.73376 -5.93368   1.450
 3.38 5.20 -3.776 -3.772 -3.764 -3.749 -3.727 11.07466 17.93576 -5.73181   1.674
 3.38 5.40 -3.718 -3.714 -3.706 -3.692 -3.671 11.19840 18.13738 -5.53031   1.931
 3.38 5.60 -3.657 -3.653 -3.646 -3.633 -3.613 11.32038 18.33861 -5.32914   2.221
 3.38 5.80 -3.593 -3.589 -3.583 -3.570 -3.551 11.43978 18.53958 -5.12818   2.548
 3.38 6.00 -3.528 -3.524 -3.518 -3.506 -3.488 11.55691 18.74036 -4.92738   2.916
 3.38 6.25 -3.443 -3.440 -3.434 -3.423 -3.406 11.69934 18.99118 -4.67652   3.436
 3.38 6.50 -3.357 -3.354 -3.349 -3.339 -3.323 11.83835 19.24179 -4.42585   4.033
 3.38 6.75 -3.270 -3.267 -3.262 -3.253 -3.238 11.97420 19.49221 -4.17548   4.716
 3.38 7.00 -3.182 -3.179 -3.175 -3.166 -3.153 12.10755 19.74249 -3.92518   5.498
 3.38 7.25 -3.094 -3.091 -3.087 -3.079 -3.067 12.23877 19.99264 -3.67491   6.395
 3.38 7.50 -3.006 -3.004 -3.000 -2.992 -2.982 12.36829 20.24279 -3.42470   7.423
 3.38 7.75 -2.919 -2.916 -2.913 -2.906 -2.896 12.49653 20.49298 -3.17454   8.604
 3.38 8.00 -2.832 -2.830 -2.827 -2.820 -2.812 12.62335 20.74320 -2.92445   9.956
 3.40-2.00 -4.738 -4.731 -4.718 -4.695 -4.666  5.84825 10.45954-13.20803   0.004
 3.40-1.50 -4.840 -4.831 -4.817 -4.791 -4.758  6.17609 10.95952-12.70819   0.006
 3.40-1.00 -4.925 -4.916 -4.899 -4.870 -4.834  6.50893 11.45954-12.20803   0.009
 3.40-0.50 -4.977 -4.967 -4.948 -4.917 -4.876  6.86564 11.95966-11.70797   0.013
 3.40 0.00 -4.983 -4.971 -4.950 -4.915 -4.871  7.25744 12.46000-11.20754   0.020
 3.40 0.50 -4.935 -4.921 -4.898 -4.859 -4.811  7.67284 12.96114-10.70642   0.033
 3.40 1.00 -4.829 -4.814 -4.789 -4.748 -4.698  8.08955 13.46449-10.20301   0.053
 3.40 1.25 -4.754 -4.738 -4.712 -4.671 -4.621  8.29517 13.71827 -9.94928   0.067
 3.40 1.50 -4.664 -4.646 -4.620 -4.579 -4.529  8.50079 13.97428 -9.69336   0.084
 3.40 1.75 -4.563 -4.545 -4.519 -4.479 -4.431  8.70687 14.23435 -9.43333   0.107
 3.40 2.00 -4.454 -4.436 -4.410 -4.371 -4.324  8.91366 14.49859 -9.16909   0.136
 3.40 2.25 -4.343 -4.326 -4.301 -4.264 -4.220  9.12526 14.76894 -8.89872   0.173
 3.40 2.50 -4.233 -4.217 -4.194 -4.159 -4.117  9.33686 15.04258 -8.62507   0.221
 3.40 2.75 -4.128 -4.114 -4.093 -4.060 -4.021  9.54806 15.31948 -8.34816   0.282
 3.40 3.00 -4.032 -4.019 -4.000 -3.970 -3.934  9.75853 15.59638 -8.07125   0.359
 3.40 3.20 -3.961 -3.950 -3.933 -3.905 -3.871  9.91813 15.81608 -7.85154   0.432
 3.40 3.40 -3.898 -3.887 -3.872 -3.847 -3.814 10.07181 16.03422 -7.63340   0.516
 3.40 3.60 -3.839 -3.830 -3.817 -3.794 -3.764 10.21838 16.25021 -7.41743   0.611
 3.40 3.80 -3.785 -3.777 -3.765 -3.745 -3.717 10.35849 16.46366 -7.20402   0.717
 3.40 4.00 -3.733 -3.727 -3.717 -3.699 -3.674 10.49360 16.67505 -6.99268   0.838
 3.40 4.20 -3.688 -3.683 -3.674 -3.657 -3.633 10.62391 16.88435 -6.78340   0.974
 3.40 4.40 -3.644 -3.639 -3.630 -3.615 -3.592 10.75206 17.09208 -6.57566   1.129
 3.40 4.60 -3.601 -3.596 -3.588 -3.574 -3.552 10.87808 17.29824 -6.36942   1.305
 3.40 4.80 -3.558 -3.554 -3.547 -3.532 -3.511 11.00319 17.50327 -6.16429   1.507
 3.40 5.00 -3.513 -3.509 -3.502 -3.488 -3.467 11.12775 17.70732 -5.96019   1.739
 3.40 5.20 -3.466 -3.463 -3.456 -3.443 -3.423 11.25225 17.91056 -5.75701   2.007
 3.40 5.40 -3.416 -3.412 -3.406 -3.393 -3.374 11.37626 18.11321 -5.55442   2.314
 3.40 5.60 -3.361 -3.358 -3.352 -3.340 -3.322 11.49958 18.31529 -5.35233   2.667
 3.40 5.80 -3.303 -3.300 -3.294 -3.283 -3.266 11.62164 18.51699 -5.15060   3.070
 3.40 6.00 -3.242 -3.239 -3.234 -3.223 -3.207 11.74241 18.71834 -4.94923   3.529
 3.40 6.25 -3.162 -3.159 -3.155 -3.145 -3.130 11.88997 18.96964 -4.69802   4.183
 3.40 6.50 -3.079 -3.077 -3.072 -3.063 -3.049 12.03423 19.22063 -4.44709   4.938
 3.40 6.75 -2.995 -2.992 -2.988 -2.980 -2.967 12.17477 19.47137 -4.19635   5.805
 3.40 7.00 -2.909 -2.907 -2.903 -2.895 -2.883 12.31218 19.72189 -3.94577   6.799
 3.40 7.25 -2.822 -2.820 -2.817 -2.810 -2.799 12.44665 19.97219 -3.69534   7.938
 3.40 7.50 -2.736 -2.734 -2.730 -2.724 -2.715 12.57875 20.22246 -3.44503   9.242
 3.40 7.75 -2.650 -2.648 -2.645 -2.639 -2.631 12.70902 20.47272 -3.19478  10.738
 3.40 8.00 -2.565 -2.563 -2.560 -2.555 -2.547 12.83727 20.72296 -2.94462  12.447
 3.42-2.00 -4.558 -4.551 -4.539 -4.518 -4.492  6.06108 10.43965-13.22805   0.005
 3.42-1.50 -4.651 -4.644 -4.630 -4.607 -4.576  6.41078 10.93957-12.72793   0.007
 3.42-1.00 -4.745 -4.737 -4.721 -4.695 -4.660  6.74170 11.43965-12.22797   0.011
 3.42-0.50 -4.822 -4.813 -4.795 -4.765 -4.726  7.06893 11.93962-11.72793   0.016
 3.42 0.00 -4.861 -4.850 -4.830 -4.796 -4.752  7.41044 12.43981-11.22783   0.024
 3.42 0.50 -4.840 -4.827 -4.805 -4.767 -4.718  7.78168 12.94017-10.72746   0.036
 3.42 1.00 -4.741 -4.727 -4.704 -4.663 -4.610  8.18213 13.44154-10.22607   0.057
 3.42 1.25 -4.661 -4.647 -4.623 -4.581 -4.528  8.38776 13.69303 -9.97458   0.072
 3.42 1.50 -4.563 -4.548 -4.524 -4.482 -4.430  8.59340 13.94547 -9.72216   0.092
 3.42 1.75 -4.447 -4.432 -4.408 -4.367 -4.316  8.79886 14.19989 -9.46776   0.116
 3.42 2.00 -4.319 -4.303 -4.279 -4.240 -4.191  9.00432 14.45682 -9.21084   0.147
 3.42 2.25 -4.185 -4.169 -4.146 -4.109 -4.063  9.21076 14.71810 -8.94951   0.186
 3.42 2.50 -4.048 -4.034 -4.012 -3.977 -3.933  9.41830 14.98372 -8.68382   0.237
 3.42 2.75 -3.918 -3.905 -3.885 -3.853 -3.813  9.62924 15.25574 -8.41184   0.302
 3.42 3.00 -3.795 -3.783 -3.765 -3.736 -3.700  9.84017 15.53033 -8.13727   0.386
 3.42 3.20 -3.704 -3.693 -3.677 -3.651 -3.617 10.00783 15.75174 -7.91584   0.468
 3.42 3.40 -3.619 -3.610 -3.596 -3.573 -3.542 10.17398 15.97315 -7.69441   0.567
 3.42 3.60 -3.542 -3.534 -3.522 -3.501 -3.473 10.33603 16.19363 -7.47393   0.683
 3.42 3.80 -3.472 -3.465 -3.455 -3.436 -3.411 10.49082 16.41184 -7.25574   0.816
 3.42 4.00 -3.409 -3.403 -3.395 -3.379 -3.356 10.63988 16.62829 -7.03934   0.969
 3.42 4.20 -3.355 -3.351 -3.343 -3.328 -3.306 10.78113 16.84196 -6.82572   1.140
 3.42 4.40 -3.306 -3.302 -3.295 -3.281 -3.261 10.91752 17.05360 -6.61411   1.334
 3.42 4.60 -3.262 -3.258 -3.252 -3.239 -3.220 11.04890 17.26317 -6.40453   1.552
 3.42 4.80 -3.221 -3.217 -3.211 -3.199 -3.180 11.17719 17.47108 -6.19659   1.799
 3.42 5.00 -3.180 -3.176 -3.171 -3.159 -3.141 11.30320 17.67752 -5.99012   2.080
 3.42 5.20 -3.139 -3.136 -3.130 -3.119 -3.102 11.42756 17.88267 -5.78496   2.400
 3.42 5.40 -3.096 -3.093 -3.088 -3.077 -3.060 11.55105 18.08689 -5.58074   2.766
 3.42 5.60 -3.050 -3.047 -3.042 -3.031 -3.016 11.67396 18.29023 -5.37746   3.187
 3.42 5.80 -3.000 -2.997 -2.992 -2.982 -2.967 11.79636 18.49297 -5.17478   3.669
 3.42 6.00 -2.946 -2.943 -2.939 -2.929 -2.915 11.91798 18.69513 -4.97265   4.221
 3.42 6.25 -2.874 -2.871 -2.867 -2.858 -2.845 12.06831 18.94712 -4.72055   5.019
 3.42 6.50 -2.797 -2.795 -2.791 -2.783 -2.771 12.21643 19.19866 -4.46890   5.953
 3.42 6.75 -2.717 -2.715 -2.711 -2.704 -2.693 12.36132 19.44992 -4.21757   7.033
 3.42 7.00 -2.635 -2.633 -2.630 -2.623 -2.613 12.50311 19.70088 -3.96658   8.279
 3.42 7.25 -2.551 -2.550 -2.547 -2.540 -2.531 12.64137 19.95148 -3.71601   9.708
 3.42 7.50 -2.467 -2.466 -2.463 -2.457 -2.449 12.77677 20.20194 -3.46559  11.346
 3.42 7.75 -2.383 -2.382 -2.379 -2.374 -2.367 12.90977 20.45236 -3.21524  13.222
 3.42 8.00 -2.300 -2.299 -2.296 -2.292 -2.285 13.04021 20.70269 -2.96497  15.362
 3.44-2.00 -4.417 -4.411 -4.400 -4.381 -4.356  6.20871 10.41963-13.24803   0.006
 3.44-1.50 -4.485 -4.478 -4.466 -4.444 -4.416  6.60021 10.91955-12.74812   0.009
 3.44-1.00 -4.564 -4.556 -4.542 -4.518 -4.485  6.96085 11.41963-12.24803   0.014
 3.44-0.50 -4.641 -4.632 -4.615 -4.587 -4.550  7.29732 11.91955-11.74812   0.020
 3.44 0.00 -4.693 -4.683 -4.664 -4.631 -4.589  7.62315 12.41963-11.24795   0.029
 3.44 0.50 -4.697 -4.685 -4.663 -4.626 -4.577  7.95497 12.91981-10.74788   0.043
 3.44 1.00 -4.626 -4.613 -4.589 -4.548 -4.494  8.30984 13.42029-10.24726   0.065
 3.44 1.25 -4.556 -4.542 -4.518 -4.476 -4.420  8.49915 13.67088 -9.99666   0.081
 3.44 1.50 -4.462 -4.448 -4.424 -4.382 -4.327  8.69408 13.92190 -9.74569   0.101
 3.44 1.75 -4.345 -4.331 -4.308 -4.266 -4.212  8.89416 14.17370 -9.49387   0.127
 3.44 2.00 -4.210 -4.196 -4.173 -4.134 -4.082  9.09656 14.42667 -9.24086   0.160
 3.44 2.25 -4.061 -4.048 -4.026 -3.989 -3.940  9.30014 14.68196 -8.98559   0.203
 3.44 2.50 -3.905 -3.893 -3.873 -3.839 -3.794  9.50529 14.94012 -8.72746   0.257
 3.44 2.75 -3.750 -3.739 -3.721 -3.690 -3.649  9.71205 15.20318 -8.46440   0.326
 3.44 3.00 -3.601 -3.590 -3.574 -3.547 -3.510  9.92028 15.47070 -8.19688   0.414
 3.44 3.20 -3.489 -3.480 -3.466 -3.441 -3.408 10.08850 15.68968 -7.97803   0.502
 3.44 3.40 -3.385 -3.377 -3.364 -3.342 -3.312 10.25673 15.90962 -7.75815   0.609
