 ROSSELAND MASS ABSORPTION COEFFICIENTS [-0.3]
 logT logP  0km/s  1km/s  2km/s  4km/s  8km/s  log Ne   log Na  log rho IPloCM-1
 3.32-2.00 -5.320 -5.310 -5.293 -5.266 -5.232  5.03222 10.54021-13.12989   0.002
 3.32-1.50 -5.347 -5.335 -5.318 -5.288 -5.254  5.46434 11.04100-12.62893   0.003
 3.32-1.00 -5.384 -5.371 -5.352 -5.322 -5.287  5.87783 11.54395-12.12616   0.005
 3.32-0.50 -5.422 -5.409 -5.389 -5.358 -5.323  6.28375 12.05231-11.61780   0.007
 3.32 0.00 -5.446 -5.432 -5.412 -5.381 -5.346  6.70096 12.57357-11.09653   0.012
 3.32 0.50 -5.445 -5.431 -5.411 -5.380 -5.344  7.14270 13.11461-10.55549   0.019
 3.32 1.00 -5.427 -5.414 -5.394 -5.362 -5.326  7.58275 13.66820-10.00191   0.032
 3.32 1.25 -5.416 -5.403 -5.383 -5.352 -5.316  7.78644 13.94328 -9.72685   0.041
 3.32 1.50 -5.405 -5.391 -5.372 -5.341 -5.306  7.97900 14.21643 -9.45370   0.051
 3.32 1.75 -5.390 -5.377 -5.358 -5.329 -5.294  8.15844 14.48535 -9.18470   0.062
 3.32 2.00 -5.373 -5.361 -5.342 -5.314 -5.280  8.33001 14.75097 -8.91901   0.076
 3.32 2.25 -5.351 -5.339 -5.322 -5.295 -5.262  8.49423 15.01315 -8.65687   0.092
 3.32 2.50 -5.325 -5.313 -5.296 -5.271 -5.240  8.65686 15.27277 -8.39729   0.111
 3.32 2.75 -5.290 -5.279 -5.264 -5.240 -5.211  8.81846 15.53026 -8.13983   0.134
 3.32 3.00 -5.249 -5.239 -5.224 -5.202 -5.174  8.98005 15.78604 -7.88406   0.161
 3.32 3.20 -5.209 -5.199 -5.186 -5.165 -5.138  9.11163 15.98954 -7.68053   0.187
 3.32 3.40 -5.163 -5.154 -5.142 -5.122 -5.097  9.24354 16.19240 -7.47765   0.218
 3.32 3.60 -5.111 -5.103 -5.092 -5.073 -5.050  9.37580 16.39467 -7.27533   0.254
 3.32 3.80 -5.053 -5.045 -5.035 -5.018 -4.996  9.50814 16.59655 -7.07343   0.295
 3.32 4.00 -4.988 -4.982 -4.973 -4.958 -4.937  9.64048 16.79803 -6.87192   0.344
 3.32 4.20 -4.926 -4.920 -4.911 -4.896 -4.876  9.76927 16.99911 -6.67084   0.399
 3.32 4.40 -4.858 -4.853 -4.844 -4.830 -4.809  9.89540 17.20001 -6.46995   0.462
 3.32 4.60 -4.788 -4.782 -4.774 -4.760 -4.739 10.01821 17.40074 -6.26920   0.532
 3.32 4.80 -4.714 -4.709 -4.701 -4.686 -4.666 10.13741 17.60137 -6.06856   0.610
 3.32 5.00 -4.633 -4.628 -4.620 -4.606 -4.585 10.25358 17.80188 -5.86806   0.697
 3.32 5.20 -4.546 -4.540 -4.532 -4.518 -4.498 10.36674 18.00230 -5.66781   0.794
 3.32 5.40 -4.447 -4.442 -4.434 -4.421 -4.401 10.47764 18.20263 -5.46757   0.902
 3.32 5.60 -4.336 -4.331 -4.324 -4.311 -4.292 10.58634 18.40284 -5.26731   1.023
 3.32 5.80 -4.209 -4.205 -4.198 -4.186 -4.168 10.69344 18.60299 -5.06705   1.157
 3.32 6.00 -4.063 -4.059 -4.053 -4.042 -4.026 10.79906 18.80312 -4.86678   1.306
 3.32 6.25 -3.847 -3.844 -3.839 -3.829 -3.815 10.92939 19.05327 -4.61676   1.518
 3.32 6.50 -3.584 -3.582 -3.578 -3.570 -3.558 11.05843 19.30341 -4.36673   1.761
 3.32 6.75 -3.266 -3.264 -3.261 -3.255 -3.246 11.18657 19.55347 -4.11660   2.040
 3.32 7.00 -3.061 -3.060 -3.057 -3.052 -3.045 11.31387 19.80353 -3.86646   2.362
 3.32 7.25 -2.950 -2.948 -2.946 -2.941 -2.935 11.44043 20.05358 -3.61650   2.733
 3.32 7.50 -2.843 -2.841 -2.839 -2.835 -2.829 11.56632 20.30363 -3.36653   3.159
 3.32 7.75 -2.740 -2.738 -2.736 -2.733 -2.728 11.69162 20.55366 -3.11651   3.649
 3.32 8.00 -2.641 -2.639 -2.637 -2.634 -2.629 11.81631 20.80366 -2.86646   4.213
 3.34-2.00 -5.251 -5.242 -5.226 -5.200 -5.166  5.09760 10.51983-13.15034   0.002
 3.34-1.50 -5.267 -5.256 -5.239 -5.211 -5.175  5.54045 11.01995-12.65014   0.003
 3.34-1.00 -5.283 -5.271 -5.252 -5.221 -5.184  5.97791 11.52101-12.14911   0.005
 3.34-0.50 -5.303 -5.290 -5.269 -5.236 -5.198  6.39759 12.02366-11.64647   0.008
 3.34 0.00 -5.317 -5.302 -5.280 -5.247 -5.207  6.80645 12.53173-11.13829   0.013
 3.34 0.50 -5.306 -5.291 -5.269 -5.234 -5.195  7.21985 13.05269-10.61762   0.021
 3.34 1.00 -5.260 -5.244 -5.222 -5.187 -5.147  7.65389 13.59317-10.07691   0.034
 3.34 1.25 -5.226 -5.211 -5.189 -5.154 -5.115  7.87348 13.86981 -9.80026   0.044
 3.34 1.50 -5.191 -5.176 -5.154 -5.120 -5.081  8.09307 14.14644 -9.52360   0.057
 3.34 1.75 -5.156 -5.141 -5.120 -5.087 -5.049  8.29951 14.42161 -9.24847   0.072
 3.34 2.00 -5.123 -5.109 -5.088 -5.057 -5.020  8.49568 14.69504 -8.97510   0.090
 3.34 2.25 -5.091 -5.077 -5.057 -5.027 -4.991  8.67790 14.96413 -8.70595   0.111
 3.34 2.50 -5.059 -5.045 -5.026 -4.998 -4.963  8.85138 15.22994 -8.44009   0.136
 3.34 2.75 -5.024 -5.011 -4.993 -4.966 -4.933  9.01690 15.49243 -8.17771   0.164
 3.34 3.00 -4.986 -4.974 -4.957 -4.931 -4.900  9.17927 15.75228 -7.91793   0.198
 3.34 3.20 -4.950 -4.939 -4.923 -4.899 -4.869  9.30716 15.95839 -7.71172   0.229
 3.34 3.40 -4.911 -4.900 -4.885 -4.863 -4.835  9.43505 16.16342 -7.50663   0.266
 3.34 3.60 -4.865 -4.856 -4.842 -4.821 -4.795  9.56359 16.36742 -7.30266   0.308
 3.34 3.80 -4.813 -4.805 -4.793 -4.774 -4.749  9.69296 16.57071 -7.09945   0.358
 3.34 4.00 -4.755 -4.749 -4.739 -4.722 -4.698  9.82256 16.77335 -6.89688   0.415
 3.34 4.20 -4.701 -4.694 -4.685 -4.668 -4.645  9.95236 16.97544 -6.69477   0.482
 3.34 4.40 -4.642 -4.636 -4.626 -4.610 -4.588 10.08216 17.17714 -6.49305   0.559
 3.34 4.60 -4.583 -4.577 -4.568 -4.552 -4.530 10.21074 17.37845 -6.29169   0.648
 3.34 4.80 -4.524 -4.518 -4.509 -4.493 -4.471 10.33638 17.57949 -6.09060   0.749
 3.34 5.00 -4.462 -4.456 -4.448 -4.432 -4.411 10.45969 17.78032 -5.88975   0.863
 3.34 5.20 -4.401 -4.395 -4.387 -4.372 -4.350 10.57944 17.98097 -5.68913   0.991
 3.34 5.40 -4.337 -4.332 -4.323 -4.309 -4.288 10.69639 18.18150 -5.48861   1.133
 3.34 5.60 -4.272 -4.267 -4.259 -4.245 -4.224 10.81040 18.38191 -5.28815   1.293
 3.34 5.80 -4.205 -4.200 -4.193 -4.179 -4.159 10.92198 18.58226 -5.08773   1.470
 3.34 6.00 -4.137 -4.132 -4.125 -4.112 -4.092 11.03141 18.78255 -4.88740   1.668
 3.34 6.25 -4.051 -4.046 -4.039 -4.027 -4.008 11.16568 19.03285 -4.63725   1.947
 3.34 6.50 -3.963 -3.959 -3.952 -3.940 -3.922 11.29776 19.28308 -4.38711   2.266
 3.34 6.75 -3.874 -3.870 -3.864 -3.853 -3.836 11.42800 19.53319 -4.13692   2.633
 3.34 7.00 -3.785 -3.781 -3.776 -3.765 -3.749 11.55691 19.78326 -3.88673   3.054
 3.34 7.25 -3.696 -3.692 -3.687 -3.677 -3.662 11.68481 20.03328 -3.63669   3.538
 3.34 7.50 -3.607 -3.603 -3.598 -3.588 -3.575 11.81178 20.28330 -3.38669   4.095
 3.34 7.75 -3.517 -3.514 -3.509 -3.500 -3.488 11.93797 20.53337 -3.13670   4.735
 3.34 8.00 -3.428 -3.425 -3.420 -3.412 -3.401 12.06333 20.78348 -2.88673   5.471
 3.36-2.00 -5.145 -5.136 -5.121 -5.095 -5.062  5.23629 10.49969-13.17037   0.002
 3.36-1.50 -5.190 -5.181 -5.164 -5.137 -5.102  5.62644 10.99978-12.67040   0.003
 3.36-1.00 -5.209 -5.198 -5.180 -5.150 -5.113  6.05154 11.50010-12.16999   0.005
 3.36-0.50 -5.213 -5.201 -5.181 -5.148 -5.108  6.48671 12.00087-11.66918   0.009
 3.36 0.00 -5.207 -5.193 -5.171 -5.136 -5.094  6.91046 12.50379-11.16628   0.014
 3.36 0.50 -5.179 -5.163 -5.140 -5.103 -5.060  7.32263 13.01199-10.65797   0.023
 3.36 1.00 -5.113 -5.097 -5.073 -5.035 -4.992  7.73584 13.53326-10.13686   0.037
 3.36 1.25 -5.066 -5.049 -5.025 -4.988 -4.945  7.94903 13.80174 -9.86827   0.047
 3.36 1.50 -5.011 -4.994 -4.970 -4.933 -4.891  8.16465 14.07408 -9.59585   0.060
 3.36 1.75 -4.951 -4.934 -4.911 -4.876 -4.834  8.38259 14.35088 -9.31912   0.077
 3.36 2.00 -4.891 -4.875 -4.852 -4.818 -4.778  8.60054 14.62767 -9.04239   0.099
 3.36 2.25 -4.833 -4.818 -4.796 -4.763 -4.725  8.80753 14.90282 -8.76729   0.126
 3.36 2.50 -4.781 -4.766 -4.745 -4.714 -4.677  9.00518 15.17609 -8.49404   0.158
 3.36 2.75 -4.731 -4.717 -4.697 -4.667 -4.632  9.18886 15.44505 -8.22507   0.195
 3.36 3.00 -4.684 -4.671 -4.652 -4.624 -4.591  9.36342 15.71071 -7.95940   0.239
 3.36 3.20 -4.645 -4.633 -4.615 -4.589 -4.557  9.49660 15.92078 -7.74940   0.279
 3.36 3.40 -4.606 -4.594 -4.578 -4.553 -4.523  9.62724 16.12917 -7.54104   0.324
 3.36 3.60 -4.563 -4.552 -4.538 -4.515 -4.486  9.75509 16.33590 -7.33424   0.375
 3.36 3.80 -4.515 -4.506 -4.493 -4.472 -4.445  9.88206 16.54142 -7.12861   0.434
 3.36 4.00 -4.463 -4.456 -4.445 -4.427 -4.402 10.00903 16.74586 -6.92409   0.502
 3.36 4.20 -4.414 -4.408 -4.397 -4.379 -4.355 10.13644 16.94944 -6.72059   0.582
 3.36 4.40 -4.361 -4.354 -4.345 -4.328 -4.304 10.26386 17.15237 -6.51775   0.674
 3.36 4.60 -4.306 -4.300 -4.290 -4.274 -4.251 10.39126 17.35465 -6.31552   0.780
 3.36 4.80 -4.250 -4.244 -4.235 -4.219 -4.197 10.51858 17.55649 -6.11368   0.903
 3.36 5.00 -4.190 -4.185 -4.176 -4.161 -4.138 10.64582 17.75793 -5.91222   1.045
 3.36 5.20 -4.129 -4.124 -4.116 -4.101 -4.080 10.77047 17.95903 -5.71105   1.206
 3.36 5.40 -4.066 -4.061 -4.054 -4.039 -4.018 10.89305 18.15993 -5.51011   1.389
 3.36 5.60 -4.001 -3.996 -3.989 -3.975 -3.955 11.01303 18.36067 -5.30938   1.596
 3.36 5.80 -3.934 -3.930 -3.923 -3.910 -3.890 11.13005 18.56129 -5.10880   1.826
 3.36 6.00 -3.865 -3.861 -3.855 -3.843 -3.824 11.24452 18.76178 -4.90833   2.083
 3.36 6.25 -3.778 -3.775 -3.769 -3.757 -3.739 11.38399 19.01213 -4.65787   2.446
 3.36 6.50 -3.690 -3.687 -3.681 -3.670 -3.653 11.52035 19.26245 -4.40749   2.862
 3.36 6.75 -3.601 -3.598 -3.593 -3.582 -3.567 11.65401 19.51277 -4.15717   3.338
 3.36 7.00 -3.512 -3.509 -3.504 -3.494 -3.480 11.78561 19.76305 -3.90693   3.883
 3.36 7.25 -3.422 -3.420 -3.415 -3.406 -3.393 11.91561 20.01311 -3.65688   4.510
 3.36 7.50 -3.333 -3.331 -3.326 -3.318 -3.306 12.04415 20.26316 -3.40683   5.229
 3.36 7.75 -3.245 -3.242 -3.238 -3.231 -3.220 12.17149 20.51328 -3.15672   6.055
 3.36 8.00 -3.157 -3.154 -3.151 -3.144 -3.134 12.29754 20.76343 -2.90658   7.002
 3.38-2.00 -4.976 -4.968 -4.953 -4.929 -4.897  5.46849 10.47972-13.19044   0.003
 3.38-1.50 -5.061 -5.052 -5.036 -5.009 -4.975  5.80489 10.97968-12.69037   0.004
 3.38-1.00 -5.117 -5.107 -5.090 -5.061 -5.024  6.16879 11.47986-12.19031   0.006
 3.38-0.50 -5.137 -5.126 -5.108 -5.076 -5.036  6.57008 11.98009-11.68994   0.009
 3.38 0.00 -5.124 -5.111 -5.091 -5.056 -5.013  6.99520 12.48116-11.18896   0.015
 3.38 0.50 -5.078 -5.064 -5.041 -5.003 -4.958  7.41913 12.98408-10.68592   0.025
 3.38 1.00 -4.989 -4.973 -4.948 -4.909 -4.862  7.83398 13.49290-10.17718   0.040
 3.38 1.25 -4.927 -4.911 -4.886 -4.847 -4.801  8.04122 13.75212 -9.91811   0.051
 3.38 1.50 -4.855 -4.838 -4.812 -4.773 -4.728  8.24846 14.01536 -9.65502   0.065
 3.38 1.75 -4.776 -4.759 -4.734 -4.696 -4.652  8.46044 14.28456 -9.38564   0.083
 3.38 2.00 -4.692 -4.675 -4.651 -4.614 -4.571  8.67431 14.55739 -9.11266   0.106
 3.38 2.25 -4.607 -4.590 -4.567 -4.533 -4.492  8.89008 14.83416 -8.83588   0.135
 3.38 2.50 -4.525 -4.509 -4.487 -4.454 -4.415  9.10585 15.11093 -8.55909   0.173
 3.38 2.75 -4.448 -4.433 -4.413 -4.382 -4.345  9.31189 15.38579 -8.28425   0.219
 3.38 3.00 -4.379 -4.366 -4.347 -4.318 -4.283  9.50934 15.65858 -8.01149   0.276
 3.38 3.20 -4.327 -4.315 -4.298 -4.271 -4.237  9.65734 15.87363 -7.79640   0.327
 3.38 3.40 -4.280 -4.269 -4.253 -4.227 -4.196  9.79948 16.08659 -7.58340   0.385
 3.38 3.60 -4.233 -4.223 -4.209 -4.185 -4.155  9.93535 16.29740 -7.37257   0.451
 3.38 3.80 -4.185 -4.177 -4.164 -4.143 -4.115 10.06719 16.50640 -7.16358   0.525
 3.38 4.00 -4.137 -4.130 -4.119 -4.101 -4.075 10.19618 16.71374 -6.95625   0.609
 3.38 4.20 -4.092 -4.086 -4.076 -4.059 -4.034 10.32258 16.91956 -6.75045   0.704
 3.38 4.40 -4.045 -4.040 -4.030 -4.014 -3.990 10.44861 17.12434 -6.54569   0.814
 3.38 4.60 -3.998 -3.993 -3.984 -3.968 -3.945 10.57440 17.32816 -6.34190   0.941
 3.38 4.80 -3.949 -3.944 -3.936 -3.921 -3.898 10.70006 17.53132 -6.13879   1.087
 3.38 5.00 -3.896 -3.891 -3.883 -3.869 -3.847 10.82549 17.73384 -5.93629   1.256
 3.38 5.20 -3.841 -3.837 -3.829 -3.815 -3.794 10.95081 17.93579 -5.73431   1.451
 3.38 5.40 -3.783 -3.778 -3.771 -3.758 -3.738 11.07570 18.13739 -5.53270   1.675
 3.38 5.60 -3.721 -3.717 -3.710 -3.697 -3.678 11.19944 18.33866 -5.33143   1.932
 3.38 5.80 -3.656 -3.652 -3.646 -3.634 -3.616 11.32091 18.53970 -5.13040   2.223
 3.38 6.00 -3.589 -3.586 -3.580 -3.569 -3.551 11.44044 18.74052 -4.92959   2.551
 3.38 6.25 -3.503 -3.500 -3.495 -3.484 -3.468 11.58587 18.99124 -4.67887   3.016
 3.38 6.50 -3.416 -3.413 -3.408 -3.398 -3.383 11.72770 19.24179 -4.42829   3.550
 3.38 6.75 -3.327 -3.325 -3.320 -3.311 -3.297 11.86597 19.49228 -4.17778   4.162
 3.38 7.00 -3.239 -3.236 -3.232 -3.224 -3.211 12.00130 19.74265 -3.92738   4.864
 3.38 7.25 -3.150 -3.147 -3.143 -3.136 -3.124 12.13393 19.99287 -3.67720   5.667
 3.38 7.50 -3.061 -3.059 -3.055 -3.048 -3.038 12.26458 20.24304 -3.42701   6.587
 3.38 7.75 -2.973 -2.971 -2.968 -2.961 -2.952 12.39380 20.49318 -3.17683   7.644
 3.38 8.00 -2.887 -2.884 -2.881 -2.875 -2.867 12.52140 20.74327 -2.92665   8.853
 3.40-2.00 -4.783 -4.776 -4.763 -4.740 -4.712  5.71467 10.45969-13.21042   0.003
 3.40-1.50 -4.883 -4.875 -4.860 -4.835 -4.803  6.04532 10.95966-12.71041   0.005
 3.40-1.00 -4.970 -4.961 -4.944 -4.916 -4.881  6.37401 11.45970-12.21035   0.007
 3.40-0.50 -5.028 -5.018 -5.000 -4.969 -4.930  6.71917 11.95980-11.71019   0.011
 3.40 0.00 -5.040 -5.029 -5.009 -4.975 -4.932  7.09691 12.46015-11.20993   0.017
 3.40 0.50 -4.997 -4.984 -4.962 -4.925 -4.879  7.50596 12.96123-10.70885   0.027
 3.40 1.00 -4.893 -4.879 -4.855 -4.816 -4.768  7.92531 13.46464-10.20537   0.044
 3.40 1.25 -4.819 -4.804 -4.780 -4.740 -4.692  8.13308 13.71842 -9.95164   0.055
 3.40 1.50 -4.730 -4.714 -4.690 -4.650 -4.602  8.34084 13.97442 -9.69573   0.070
 3.40 1.75 -4.631 -4.615 -4.590 -4.552 -4.505  8.54882 14.23442 -9.43566   0.089
 3.40 2.00 -4.523 -4.507 -4.482 -4.445 -4.399  8.75717 14.49859 -9.17140   0.113
 3.40 2.25 -4.414 -4.398 -4.375 -4.339 -4.296  8.96908 14.76893 -8.90108   0.145
 3.40 2.50 -4.306 -4.291 -4.269 -4.235 -4.194  9.18184 15.04258 -8.62746   0.185
 3.40 2.75 -4.202 -4.188 -4.168 -4.137 -4.098  9.39524 15.31953 -8.35053   0.237
 3.40 3.00 -4.105 -4.092 -4.074 -4.046 -4.010  9.60863 15.59649 -8.07361   0.302
 3.40 3.20 -4.033 -4.022 -4.006 -3.979 -3.945  9.77256 15.81616 -7.85394   0.365
 3.40 3.40 -3.968 -3.958 -3.943 -3.919 -3.888  9.93124 16.03425 -7.63585   0.438
 3.40 3.60 -3.908 -3.899 -3.886 -3.864 -3.835 10.08299 16.25023 -7.41983   0.522
 3.40 3.80 -3.852 -3.845 -3.834 -3.814 -3.787 10.22748 16.46372 -7.20629   0.617
 3.40 4.00 -3.800 -3.794 -3.784 -3.767 -3.742 10.36624 16.67514 -6.99482   0.724
 3.40 4.20 -3.754 -3.749 -3.740 -3.724 -3.701 10.49918 16.88439 -6.78560   0.844
 3.40 4.40 -3.709 -3.704 -3.696 -3.681 -3.659 10.62906 17.09208 -6.57794   0.979
 3.40 4.60 -3.666 -3.662 -3.654 -3.640 -3.619 10.75575 17.29829 -6.37177   1.133
 3.40 4.80 -3.623 -3.619 -3.612 -3.599 -3.578 10.88103 17.50340 -6.16666   1.309
 3.40 5.00 -3.578 -3.574 -3.567 -3.554 -3.534 11.00561 17.70749 -5.96257   1.511
 3.40 5.20 -3.532 -3.528 -3.521 -3.509 -3.490 11.13002 17.91065 -5.75938   1.744
 3.40 5.40 -3.481 -3.477 -3.471 -3.459 -3.441 11.25396 18.11324 -5.55677   2.011
 3.40 5.60 -3.426 -3.423 -3.417 -3.406 -3.388 11.37753 18.31531 -5.35468   2.318
 3.40 5.80 -3.367 -3.364 -3.359 -3.348 -3.331 11.50047 18.51704 -5.15293   2.671
 3.40 6.00 -3.305 -3.302 -3.297 -3.287 -3.271 11.62263 18.71842 -4.95156   3.074
 3.40 6.25 -3.224 -3.221 -3.217 -3.207 -3.193 11.77254 18.96967 -4.70034   3.653
 3.40 6.50 -3.140 -3.137 -3.133 -3.124 -3.111 11.91955 19.22063 -4.44941   4.327
 3.40 6.75 -3.054 -3.051 -3.047 -3.039 -3.027 12.06267 19.47139 -4.19865   5.103
 3.40 7.00 -2.966 -2.964 -2.961 -2.953 -2.942 12.20249 19.72198 -3.94808   5.994
 3.40 7.25 -2.879 -2.877 -2.874 -2.867 -2.857 12.33904 19.97240 -3.69775   7.014
 3.40 7.50 -2.791 -2.790 -2.787 -2.781 -2.772 12.47290 20.22272 -3.44745   8.182
 3.40 7.75 -2.705 -2.703 -2.700 -2.695 -2.687 12.60459 20.47296 -3.19718   9.521
 3.40 8.00 -2.619 -2.618 -2.615 -2.610 -2.603 12.73392 20.72313 -2.94692  11.050
 3.42-2.00 -4.609 -4.602 -4.591 -4.570 -4.544  5.91360 10.43965-13.23040   0.004
 3.42-1.50 -4.697 -4.690 -4.677 -4.654 -4.624  6.27393 10.93967-12.73049   0.006
 3.42-1.00 -4.789 -4.781 -4.766 -4.740 -4.706  6.61077 11.43981-12.23033   0.009
 3.42-0.50 -4.868 -4.858 -4.841 -4.812 -4.774  6.93737 11.93977-11.73025   0.014
 3.42 0.00 -4.912 -4.901 -4.882 -4.849 -4.807  7.27091 12.43996-11.23018   0.020
 3.42 0.50 -4.898 -4.886 -4.864 -4.828 -4.781  7.62941 12.94032-10.72979   0.030
 3.42 1.00 -4.806 -4.793 -4.770 -4.731 -4.680  8.02036 13.44170-10.22841   0.047
 3.42 1.25 -4.728 -4.715 -4.692 -4.652 -4.601  8.22464 13.69316 -9.97691   0.060
 3.42 1.50 -4.632 -4.619 -4.595 -4.556 -4.505  8.43056 13.94557 -9.72446   0.076
 3.42 1.75 -4.519 -4.505 -4.482 -4.443 -4.394  8.63719 14.19994 -9.47006   0.097
 3.42 2.00 -4.393 -4.379 -4.356 -4.318 -4.271  8.84473 14.45682 -9.21318   0.123
 3.42 2.25 -4.260 -4.246 -4.224 -4.188 -4.143  9.05291 14.71815 -8.95194   0.156
 3.42 2.50 -4.124 -4.111 -4.090 -4.056 -4.014  9.26221 14.98385 -8.68635   0.198
 3.42 2.75 -3.995 -3.982 -3.963 -3.933 -3.894  9.47443 15.25589 -8.41427   0.253
 3.42 3.00 -3.872 -3.860 -3.844 -3.815 -3.780  9.68664 15.53046 -8.13966   0.323
 3.42 3.20 -3.780 -3.770 -3.755 -3.730 -3.697  9.85596 15.75182 -7.91828   0.393
 3.42 3.40 -3.695 -3.687 -3.673 -3.650 -3.620 10.02455 15.97318 -7.69689   0.477
 3.42 3.60 -3.617 -3.609 -3.597 -3.577 -3.550 10.19006 16.19364 -7.47642   0.578
 3.42 3.80 -3.545 -3.538 -3.528 -3.511 -3.486 10.34913 16.41189 -7.25817   0.694
 3.42 4.00 -3.480 -3.475 -3.466 -3.451 -3.428 10.50297 16.62839 -7.04168   0.828
 3.42 4.20 -3.424 -3.420 -3.412 -3.398 -3.377 10.64874 16.84201 -6.82799   0.979
 3.42 4.40 -3.374 -3.370 -3.363 -3.350 -3.330 10.78902 17.05362 -6.61636   1.150
 3.42 4.60 -3.328 -3.325 -3.319 -3.306 -3.288 10.92344 17.26320 -6.40686   1.343
 3.42 4.80 -3.286 -3.283 -3.277 -3.265 -3.247 11.05387 17.47115 -6.19905   1.561
 3.42 5.00 -3.245 -3.242 -3.236 -3.225 -3.207 11.18127 17.67761 -5.99268   1.808
 3.42 5.20 -3.204 -3.201 -3.195 -3.184 -3.168 11.30623 17.88271 -5.78747   2.088
 3.42 5.40 -3.160 -3.158 -3.152 -3.142 -3.126 11.43011 18.08690 -5.58317   2.407
 3.42 5.60 -3.114 -3.111 -3.106 -3.096 -3.081 11.55318 18.29024 -5.37972   2.774
 3.42 5.80 -3.063 -3.061 -3.056 -3.047 -3.032 11.67572 18.49301 -5.17691   3.194
 3.42 6.00 -3.009 -3.007 -3.002 -2.993 -2.980 11.79754 18.69522 -4.97469   3.675
 3.42 6.25 -2.936 -2.934 -2.930 -2.922 -2.909 11.94904 18.94734 -4.72273   4.375
 3.42 6.50 -2.859 -2.856 -2.853 -2.845 -2.833 12.09899 19.19893 -4.47121   5.199
 3.42 6.75 -2.777 -2.775 -2.772 -2.765 -2.754 12.24604 19.45008 -4.21996   6.158
 3.42 7.00 -2.694 -2.692 -2.689 -2.683 -2.673 12.39023 19.70096 -3.96900   7.270
 3.42 7.25 -2.609 -2.607 -2.605 -2.599 -2.590 12.53085 19.95168 -3.71834   8.547
 3.42 7.50 -2.524 -2.523 -2.520 -2.515 -2.507 12.66839 20.20222 -3.46788  10.014
 3.42 7.75 -2.439 -2.438 -2.435 -2.431 -2.424 12.80308 20.45262 -3.21756  11.694
 3.42 8.00 -2.356 -2.354 -2.352 -2.348 -2.341 12.93485 20.70286 -2.96738  13.611
 3.44-2.00 -4.476 -4.471 -4.460 -4.441 -4.417  6.04376 10.41963-13.25042   0.005
 3.44-1.50 -4.539 -4.532 -4.520 -4.499 -4.471  6.44747 10.91965-12.75031   0.008
 3.44-1.00 -4.613 -4.605 -4.592 -4.567 -4.536  6.82020 11.41979-12.25034   0.012
 3.44-0.50 -4.687 -4.678 -4.663 -4.635 -4.599  7.16495 11.91971-11.75031   0.017
 3.44 0.00 -4.742 -4.732 -4.713 -4.682 -4.640  7.49318 12.41979-11.25026   0.025
 3.44 0.50 -4.751 -4.739 -4.718 -4.682 -4.635  7.82046 12.91992-10.75007   0.037
 3.44 1.00 -4.687 -4.674 -4.651 -4.612 -4.560  8.16465 13.42045-10.24965   0.055
 3.44 1.25 -4.620 -4.607 -4.584 -4.544 -4.490  8.34790 13.67103 -9.99909   0.068
 3.44 1.50 -4.531 -4.517 -4.494 -4.454 -4.400  8.53795 13.92200 -9.74812   0.084
 3.44 1.75 -4.417 -4.404 -4.381 -4.342 -4.289  8.73535 14.17382 -9.49627   0.105
 3.44 2.00 -4.285 -4.272 -4.251 -4.213 -4.162  8.93672 14.42684 -9.24321   0.133
 3.44 2.25 -4.138 -4.126 -4.106 -4.070 -4.022  9.14067 14.68210 -8.98792   0.169
 3.44 2.50 -3.984 -3.973 -3.954 -3.921 -3.877  9.34694 14.94022 -8.72979   0.214
 3.44 2.75 -3.830 -3.820 -3.802 -3.772 -3.733  9.55515 15.20331 -8.46673   0.272
 3.44 3.00 -3.680 -3.671 -3.655 -3.628 -3.593  9.76500 15.47085 -8.19922   0.346
 3.44 3.20 -3.568 -3.560 -3.546 -3.522 -3.490  9.93446 15.68973 -7.98035   0.420
 3.44 3.40 -3.464 -3.456 -3.444 -3.423 -3.393 10.10392 15.90962 -7.76046   0.511
