 ROSSELAND MASS ABSORPTION COEFFICIENTS [-3.0] 
 logT logP  0km/s  1km/s  2km/s  4km/s  8km/s  log Ne   log Na  log rho IPloCM-1
 3.32-2.00 -6.401 -6.396 -6.387 -6.370 -6.347  2.87703 10.54033-13.13395   0.001
 3.32-1.50 -6.451 -6.446 -6.438 -6.422 -6.400  3.21192 11.04139-12.63302   0.001
 3.32-1.00 -6.479 -6.474 -6.466 -6.451 -6.430  3.57113 11.54419-12.13018   0.001
 3.32-0.50 -6.475 -6.470 -6.462 -6.446 -6.424  3.97557 12.05231-11.62197   0.001
 3.32 0.00 -6.439 -6.434 -6.425 -6.408 -6.384  4.43185 12.57380-11.10062   0.001
 3.32 0.50 -6.384 -6.379 -6.369 -6.350 -6.324  4.92044 13.11494-10.55956   0.002
 3.32 1.00 -6.327 -6.322 -6.312 -6.293 -6.266  5.40312 13.66829-10.00603   0.003
 3.32 1.25 -6.299 -6.294 -6.285 -6.266 -6.240  5.63289 13.94330 -9.73096   0.003
 3.32 1.50 -6.271 -6.267 -6.258 -6.241 -6.217  5.85576 14.21643 -9.45780   0.004
 3.32 1.75 -6.243 -6.239 -6.232 -6.216 -6.194  6.07104 14.48542 -9.18895   0.005
 3.32 2.00 -6.216 -6.212 -6.206 -6.192 -6.172  6.28285 14.75113 -8.92336   0.007
 3.32 2.25 -6.188 -6.185 -6.178 -6.166 -6.149  6.49165 15.01336 -8.66105   0.009
 3.32 2.50 -6.159 -6.156 -6.151 -6.140 -6.125  6.70044 15.27300 -8.40132   0.012
 3.32 2.75 -6.129 -6.127 -6.122 -6.113 -6.099  6.90985 15.53044 -8.14382   0.015
 3.32 3.00 -6.098 -6.096 -6.092 -6.084 -6.072  7.11926 15.78618 -7.88807   0.019
 3.32 3.20 -6.072 -6.071 -6.067 -6.060 -6.049  7.28399 15.98972 -7.68460   0.023
 3.32 3.40 -6.046 -6.044 -6.041 -6.035 -6.025  7.44577 16.19260 -7.48177   0.027
 3.32 3.60 -6.019 -6.018 -6.015 -6.009 -6.001  7.60268 16.39489 -7.27951   0.033
 3.32 3.80 -5.991 -5.990 -5.988 -5.983 -5.975  7.75272 16.59677 -7.07764   0.039
 3.32 4.00 -5.961 -5.960 -5.958 -5.954 -5.947  7.89719 16.79824 -6.87615   0.046
 3.32 4.20 -5.932 -5.931 -5.930 -5.925 -5.918  8.03487 16.99933 -6.67499   0.054
 3.32 4.40 -5.901 -5.900 -5.898 -5.894 -5.887  8.16848 17.20022 -6.47405   0.063
 3.32 4.60 -5.867 -5.866 -5.864 -5.860 -5.852  8.29755 17.40096 -6.27331   0.073
 3.32 4.80 -5.829 -5.828 -5.826 -5.822 -5.814  8.42442 17.60159 -6.07271   0.085
 3.32 5.00 -5.786 -5.786 -5.784 -5.779 -5.771  8.55035 17.80209 -5.87225   0.098
 3.32 5.20 -5.739 -5.738 -5.736 -5.731 -5.723  8.67561 18.00238 -5.67192   0.113
 3.32 5.40 -5.685 -5.684 -5.682 -5.677 -5.669  8.80087 18.20264 -5.47163   0.131
 3.32 5.60 -5.624 -5.623 -5.621 -5.616 -5.608  8.92713 18.40289 -5.27138   0.152
 3.32 5.80 -5.554 -5.553 -5.551 -5.547 -5.539  9.05530 18.60312 -5.07115   0.176
 3.32 6.00 -5.473 -5.472 -5.470 -5.466 -5.458  9.18469 18.80332 -4.87096   0.204
 3.32 6.25 -5.347 -5.347 -5.345 -5.341 -5.335  9.34889 19.05350 -4.62087   0.246
 3.32 6.50 -5.183 -5.183 -5.181 -5.178 -5.172  9.51309 19.30363 -4.37080   0.297
 3.32 6.75 -4.959 -4.959 -4.957 -4.955 -4.950  9.67525 19.55368 -4.12071   0.358
 3.32 7.00 -4.792 -4.792 -4.791 -4.789 -4.785  9.83499 19.80373 -3.87063   0.430
 3.32 7.25 -4.687 -4.686 -4.686 -4.684 -4.681  9.98887 20.05379 -3.62060   0.514
 3.32 7.50 -4.581 -4.580 -4.580 -4.578 -4.575 10.13799 20.30384 -3.37059   0.610
 3.32 7.75 -4.473 -4.473 -4.472 -4.471 -4.468 10.28228 20.55387 -3.12060   0.720
 3.32 8.00 -4.363 -4.363 -4.362 -4.361 -4.359 10.42177 20.80387 -2.87063   0.846
 3.34-2.00 -6.241 -6.235 -6.225 -6.205 -6.179  3.14922 10.51996-13.15434   0.001
 3.34-1.50 -6.292 -6.287 -6.277 -6.258 -6.232  3.49052 11.02036-12.65404   0.001
 3.34-1.00 -6.334 -6.329 -6.319 -6.301 -6.276  3.82132 11.52114-12.15317   0.001
 3.34-0.50 -6.351 -6.346 -6.337 -6.318 -6.293  4.15987 12.02366-11.65053   0.001
 3.34 0.00 -6.332 -6.326 -6.316 -6.297 -6.270  4.53020 12.53199-11.14237   0.001
 3.34 0.50 -6.274 -6.269 -6.258 -6.237 -6.208  4.95347 13.05269-10.62160   0.002
 3.34 1.00 -6.199 -6.193 -6.183 -6.162 -6.134  5.42797 13.59329-10.08103   0.003
 3.34 1.25 -6.162 -6.157 -6.147 -6.128 -6.101  5.67108 13.87002 -9.80435   0.004
 3.34 1.50 -6.130 -6.125 -6.117 -6.099 -6.074  5.91418 14.14675 -9.52768   0.005
 3.34 1.75 -6.101 -6.097 -6.089 -6.073 -6.051  6.14773 14.42190 -9.25256   0.006
 3.34 2.00 -6.075 -6.072 -6.065 -6.051 -6.031  6.37438 14.69522 -8.97922   0.008
 3.34 2.25 -6.051 -6.048 -6.042 -6.030 -6.013  6.59240 14.96434 -8.71007   0.010
 3.34 2.50 -6.029 -6.026 -6.020 -6.010 -5.994  6.80516 15.23019 -8.44418   0.013
 3.34 2.75 -6.005 -6.003 -5.998 -5.988 -5.974  7.01289 15.49267 -8.18173   0.017
 3.34 3.00 -5.980 -5.978 -5.974 -5.965 -5.953  7.21958 15.75251 -7.92191   0.021
 3.34 3.20 -5.958 -5.956 -5.952 -5.945 -5.933  7.38483 15.95863 -7.71578   0.025
 3.34 3.40 -5.934 -5.932 -5.929 -5.922 -5.911  7.54952 16.16366 -7.51073   0.030
 3.34 3.60 -5.907 -5.906 -5.903 -5.897 -5.887  7.71355 16.36765 -7.30666   0.036
 3.34 3.80 -5.878 -5.877 -5.875 -5.869 -5.860  7.87600 16.57094 -7.10331   0.044
 3.34 4.00 -5.846 -5.845 -5.843 -5.839 -5.831  8.03663 16.77357 -6.90066   0.053
 3.34 4.20 -5.817 -5.816 -5.814 -5.809 -5.801  8.19100 16.97567 -6.69870   0.063
 3.34 4.40 -5.786 -5.785 -5.783 -5.778 -5.770  8.34035 17.17737 -6.49709   0.075
 3.34 4.60 -5.753 -5.752 -5.750 -5.745 -5.737  8.48365 17.37867 -6.29579   0.089
 3.34 4.80 -5.720 -5.719 -5.717 -5.712 -5.703  8.62134 17.57972 -6.09469   0.104
 3.34 5.00 -5.685 -5.684 -5.682 -5.677 -5.668  8.75458 17.78053 -5.89381   0.121
 3.34 5.20 -5.648 -5.647 -5.645 -5.640 -5.632  8.88328 17.98119 -5.69319   0.141
 3.34 5.40 -5.610 -5.609 -5.607 -5.602 -5.594  9.01020 18.18172 -5.49267   0.163
 3.34 5.60 -5.570 -5.569 -5.567 -5.562 -5.553  9.13519 18.38215 -5.29220   0.188
 3.34 5.80 -5.527 -5.526 -5.524 -5.519 -5.511  9.25959 18.58250 -5.09178   0.217
 3.34 6.00 -5.482 -5.481 -5.479 -5.475 -5.467  9.38400 18.78276 -4.89144   0.250
 3.34 6.25 -5.422 -5.421 -5.419 -5.414 -5.407  9.54121 19.03292 -4.64129   0.300
 3.34 6.50 -5.356 -5.355 -5.353 -5.349 -5.342  9.69975 19.28308 -4.39115   0.360
 3.34 6.75 -5.284 -5.284 -5.282 -5.278 -5.272  9.86068 19.53328 -4.14096   0.433
 3.34 7.00 -5.208 -5.207 -5.206 -5.202 -5.196 10.02160 19.78348 -3.89076   0.521
 3.34 7.25 -5.127 -5.126 -5.125 -5.122 -5.116 10.18070 20.03350 -3.64073   0.626
 3.34 7.50 -5.042 -5.042 -5.041 -5.038 -5.033 10.33766 20.28353 -3.39073   0.750
 3.34 7.75 -4.957 -4.956 -4.955 -4.953 -4.949 10.48960 20.53359 -3.14073   0.894
 3.34 8.00 -4.871 -4.870 -4.869 -4.867 -4.864 10.63749 20.78369 -2.89076   1.060
 3.36-2.00 -6.107 -6.101 -6.090 -6.069 -6.041  3.34557 10.49996-13.17444   0.001
 3.36-1.50 -6.144 -6.138 -6.127 -6.106 -6.078  3.72965 10.99996-12.67448   0.001
 3.36-1.00 -6.182 -6.176 -6.165 -6.143 -6.115  4.08529 11.50024-12.17406   0.001
 3.36-0.50 -6.205 -6.199 -6.188 -6.166 -6.138  4.42128 12.00130-11.67325   0.001
 3.36 0.00 -6.198 -6.192 -6.180 -6.158 -6.128  4.75243 12.50406-11.17031   0.001
 3.36 0.50 -6.154 -6.148 -6.136 -6.113 -6.082  5.10037 13.01242-10.66214   0.002
 3.36 1.00 -6.084 -6.078 -6.067 -6.046 -6.016  5.49220 13.53339-10.14092   0.003
 3.36 1.25 -6.045 -6.040 -6.030 -6.011 -5.983  5.71250 13.80201 -9.87237   0.004
 3.36 1.50 -6.010 -6.005 -5.996 -5.979 -5.954  5.94280 14.07445 -9.59998   0.005
 3.36 1.75 -5.978 -5.973 -5.966 -5.950 -5.928  6.18327 14.35116 -9.32323   0.006
 3.36 2.00 -5.950 -5.946 -5.939 -5.926 -5.906  6.42374 14.62788 -9.04648   0.008
 3.36 2.25 -5.925 -5.921 -5.915 -5.903 -5.886  6.65839 14.90292 -8.77142   0.011
 3.36 2.50 -5.901 -5.898 -5.892 -5.881 -5.866  6.88762 15.17609 -8.49826   0.014
 3.36 2.75 -5.877 -5.874 -5.869 -5.859 -5.844  7.10763 15.44513 -8.22917   0.018
 3.36 3.00 -5.852 -5.849 -5.844 -5.835 -5.822  7.32160 15.71088 -7.96337   0.023
 3.36 3.20 -5.829 -5.827 -5.823 -5.814 -5.802  7.48835 15.92086 -7.75341   0.028
 3.36 3.40 -5.805 -5.803 -5.800 -5.792 -5.780  7.65339 16.12919 -7.54508   0.034
 3.36 3.60 -5.779 -5.777 -5.774 -5.767 -5.756  7.81707 16.33597 -7.33829   0.041
 3.36 3.80 -5.750 -5.748 -5.746 -5.739 -5.729  7.97990 16.54158 -7.13265   0.049
 3.36 4.00 -5.717 -5.716 -5.714 -5.708 -5.700  8.14176 16.74609 -6.92812   0.059
 3.36 4.20 -5.686 -5.685 -5.683 -5.677 -5.668  8.30327 16.94956 -6.72467   0.071
 3.36 4.40 -5.652 -5.651 -5.649 -5.643 -5.634  8.46340 17.15240 -6.52185   0.085
 3.36 4.60 -5.616 -5.615 -5.612 -5.607 -5.598  8.62075 17.35467 -6.31957   0.102
 3.36 4.80 -5.578 -5.577 -5.575 -5.570 -5.561  8.77305 17.55657 -6.11766   0.121
 3.36 5.00 -5.539 -5.538 -5.536 -5.531 -5.522  8.92096 17.75808 -5.91614   0.144
 3.36 5.20 -5.499 -5.498 -5.496 -5.491 -5.482  9.06210 17.95923 -5.71504   0.169
 3.36 5.40 -5.458 -5.457 -5.455 -5.450 -5.442  9.19870 18.16016 -5.51413   0.197
 3.36 5.60 -5.416 -5.415 -5.413 -5.408 -5.400  9.33037 18.36091 -5.31337   0.230
 3.36 5.80 -5.372 -5.371 -5.369 -5.364 -5.356  9.45883 18.56153 -5.11272   0.266
 3.36 6.00 -5.325 -5.324 -5.322 -5.318 -5.310  9.58501 18.76200 -4.91222   0.308
 3.36 6.25 -5.263 -5.262 -5.261 -5.257 -5.249  9.73986 19.01237 -4.66189   0.368
 3.36 6.50 -5.196 -5.195 -5.194 -5.190 -5.183  9.89470 19.26269 -4.41162   0.440
 3.36 6.75 -5.123 -5.122 -5.121 -5.117 -5.111 10.05007 19.51300 -4.16136   0.526
 3.36 7.00 -5.044 -5.043 -5.042 -5.038 -5.033 10.20602 19.76328 -3.91116   0.630
 3.36 7.25 -4.958 -4.957 -4.956 -4.953 -4.949 10.36371 20.01334 -3.66104   0.755
 3.36 7.50 -4.867 -4.867 -4.866 -4.863 -4.859 10.52140 20.26340 -3.41094   0.906
 3.36 7.75 -4.774 -4.773 -4.772 -4.770 -4.766 10.67715 20.51351 -3.16086   1.084
 3.36 8.00 -4.679 -4.678 -4.678 -4.676 -4.672 10.83161 20.76365 -2.91080   1.295
 3.38-2.00 -6.006 -6.000 -5.989 -5.967 -5.938  3.45773 10.47986-13.19450   0.001
 3.38-1.50 -6.027 -6.021 -6.009 -5.987 -5.958  3.88666 10.97987-12.69443   0.001
 3.38-1.00 -6.050 -6.043 -6.032 -6.009 -5.979  4.28937 11.48001-12.19436   0.001
 3.38-0.50 -6.065 -6.058 -6.046 -6.023 -5.992  4.66181 11.98028-11.69400   0.001
 3.38 0.00 -6.058 -6.052 -6.039 -6.015 -5.983  5.00817 12.48130-11.19308   0.002
 3.38 0.50 -6.021 -6.015 -6.002 -5.978 -5.946  5.34025 12.98430-10.69016   0.002
 3.38 1.00 -5.961 -5.955 -5.944 -5.923 -5.893  5.67715 13.49318-10.18125   0.003
 3.38 1.25 -5.927 -5.922 -5.912 -5.892 -5.865  5.85624 13.75227 -9.92211   0.004
 3.38 1.50 -5.894 -5.890 -5.881 -5.863 -5.839  6.04532 14.01536 -9.65896   0.005
 3.38 1.75 -5.863 -5.859 -5.851 -5.836 -5.814  6.25107 14.28468 -9.38965   0.006
 3.38 2.00 -5.834 -5.830 -5.823 -5.810 -5.791  6.46894 14.55763 -9.11674   0.008
 3.38 2.25 -5.806 -5.803 -5.796 -5.784 -5.767  6.70227 14.83445 -8.83997   0.011
 3.38 2.50 -5.778 -5.775 -5.769 -5.758 -5.741  6.93561 15.11126 -8.56320   0.014
 3.38 2.75 -5.749 -5.746 -5.741 -5.730 -5.714  7.16771 15.38608 -8.28835   0.018
 3.38 3.00 -5.718 -5.716 -5.711 -5.700 -5.686  7.39794 15.65877 -8.01556   0.024
 3.38 3.20 -5.692 -5.690 -5.685 -5.676 -5.662  7.57502 15.87386 -7.80052   0.030
 3.38 3.40 -5.665 -5.663 -5.659 -5.650 -5.637  7.74824 16.08685 -7.58757   0.036
 3.38 3.60 -5.636 -5.634 -5.630 -5.622 -5.610  7.91729 16.29765 -7.37682   0.044
 3.38 3.80 -5.605 -5.603 -5.600 -5.593 -5.582  8.08332 16.50660 -7.16790   0.054
 3.38 4.00 -5.571 -5.570 -5.568 -5.562 -5.552  8.24699 16.71391 -6.96059   0.065
 3.38 4.20 -5.540 -5.539 -5.537 -5.531 -5.522  8.40894 16.91977 -6.75462   0.078
 3.38 4.40 -5.507 -5.506 -5.503 -5.498 -5.488  8.56964 17.12458 -6.54974   0.094
 3.38 4.60 -5.471 -5.470 -5.467 -5.462 -5.453  8.72958 17.32842 -6.34594   0.113
 3.38 4.80 -5.432 -5.431 -5.429 -5.423 -5.414  8.88857 17.53157 -6.14289   0.135
 3.38 5.00 -5.390 -5.389 -5.387 -5.382 -5.373  9.04610 17.73408 -5.94044   0.162
 3.38 5.20 -5.347 -5.346 -5.343 -5.338 -5.330  9.19973 17.93605 -5.73840   0.193
 3.38 5.40 -5.300 -5.299 -5.297 -5.293 -5.284  9.34949 18.13764 -5.53673   0.230
 3.38 5.60 -5.252 -5.251 -5.249 -5.245 -5.237  9.49430 18.33888 -5.33547   0.271
 3.38 5.80 -5.202 -5.201 -5.200 -5.195 -5.188  9.63369 18.53988 -5.13447   0.319
 3.38 6.00 -5.150 -5.149 -5.148 -5.143 -5.136  9.76856 18.74068 -4.93367   0.372
 3.38 6.25 -5.082 -5.081 -5.079 -5.076 -5.069  9.93052 18.99146 -4.68288   0.448
 3.38 6.50 -5.009 -5.009 -5.007 -5.004 -4.998 10.08849 19.24205 -4.43227   0.538
 3.38 6.75 -4.932 -4.931 -4.930 -4.927 -4.921 10.24292 19.49247 -4.18179   0.642
 3.38 7.00 -4.849 -4.849 -4.847 -4.844 -4.840 10.39690 19.74280 -3.93144   0.767
 3.38 7.25 -4.761 -4.761 -4.760 -4.757 -4.753 10.55061 19.99308 -3.68127   0.916
 3.38 7.50 -4.669 -4.668 -4.667 -4.665 -4.661 10.70432 20.24329 -3.43109   1.093
 3.38 7.75 -4.572 -4.572 -4.571 -4.569 -4.566 10.85876 20.49343 -3.18090   1.306
 3.38 8.00 -4.474 -4.474 -4.473 -4.471 -4.468 11.01368 20.74351 -2.93070   1.560
 3.40-2.00 -5.932 -5.926 -5.914 -5.891 -5.862  3.50393 10.45984-13.21446   0.001
 3.40-1.50 -5.939 -5.932 -5.920 -5.897 -5.867  3.97025 10.95985-12.71444   0.001
 3.40-1.00 -5.947 -5.941 -5.929 -5.905 -5.875  4.41296 11.46000-12.21446   0.001
 3.40-0.50 -5.950 -5.943 -5.931 -5.907 -5.875  4.83091 11.96000-11.71444   0.001
 3.40 0.00 -5.935 -5.929 -5.916 -5.892 -5.859  5.21985 12.46045-11.21396   0.002
 3.40 0.50 -5.897 -5.891 -5.879 -5.855 -5.823  5.57933 12.96147-10.71287   0.003
 3.40 1.00 -5.841 -5.835 -5.824 -5.803 -5.775  5.91777 13.46494-10.20950   0.004
 3.40 1.25 -5.808 -5.803 -5.793 -5.775 -5.749  6.08470 13.71868 -9.95577   0.005
 3.40 1.50 -5.776 -5.772 -5.763 -5.746 -5.723  6.25164 13.97460 -9.69984   0.006
 3.40 1.75 -5.744 -5.740 -5.732 -5.717 -5.697  6.42500 14.23463 -9.43976   0.008
 3.40 2.00 -5.714 -5.710 -5.703 -5.689 -5.670  6.60531 14.49886 -9.17548   0.010
 3.40 2.25 -5.684 -5.680 -5.674 -5.661 -5.643  6.79963 14.76929 -8.90515   0.012
 3.40 2.50 -5.654 -5.650 -5.644 -5.632 -5.615  7.00561 15.04297 -8.63153   0.015
 3.40 2.75 -5.621 -5.618 -5.612 -5.601 -5.585  7.22742 15.31984 -8.35461   0.019
 3.40 3.00 -5.586 -5.583 -5.578 -5.567 -5.551  7.45255 15.59671 -8.07769   0.025
 3.40 3.20 -5.555 -5.552 -5.547 -5.537 -5.522  7.63443 15.81640 -7.85798   0.031
 3.40 3.40 -5.522 -5.520 -5.516 -5.506 -5.492  7.81631 16.03453 -7.63984   0.039
 3.40 3.60 -5.488 -5.486 -5.483 -5.474 -5.461  7.99573 16.25051 -7.42388   0.047
 3.40 3.80 -5.453 -5.451 -5.448 -5.441 -5.429  8.17017 16.46395 -7.21047   0.058
 3.40 4.00 -5.416 -5.415 -5.412 -5.406 -5.396  8.34124 16.67532 -6.99913   0.070
 3.40 4.20 -5.383 -5.381 -5.379 -5.373 -5.363  8.50824 16.88462 -6.78988   0.085
 3.40 4.40 -5.347 -5.346 -5.344 -5.338 -5.329  8.67265 17.09235 -6.58215   0.103
 3.40 4.60 -5.310 -5.309 -5.307 -5.302 -5.293  8.83461 17.29854 -6.37588   0.124
 3.40 4.80 -5.272 -5.271 -5.268 -5.263 -5.254  8.99486 17.50360 -6.17071   0.149
 3.40 5.00 -5.229 -5.228 -5.226 -5.221 -5.213  9.15351 17.70766 -5.96658   0.179
 3.40 5.20 -5.184 -5.183 -5.181 -5.176 -5.168  9.31145 17.91086 -5.76342   0.215
 3.40 5.40 -5.135 -5.134 -5.132 -5.127 -5.119  9.46763 18.11349 -5.56085   0.257
 3.40 5.60 -5.081 -5.081 -5.079 -5.074 -5.067  9.62164 18.31558 -5.35885   0.307
 3.40 5.80 -5.024 -5.024 -5.022 -5.018 -5.011  9.77216 18.51730 -5.15719   0.365
 3.40 6.00 -4.964 -4.964 -4.962 -4.958 -4.952  9.91918 18.71867 -4.95585   0.433
 3.40 6.25 -4.886 -4.885 -4.884 -4.880 -4.874 10.09493 18.96994 -4.70448   0.530
 3.40 6.50 -4.804 -4.803 -4.802 -4.798 -4.793 10.26387 19.22089 -4.45346   0.643
 3.40 6.75 -4.718 -4.718 -4.717 -4.714 -4.709 10.42575 19.47159 -4.20284   0.775
 3.40 7.00 -4.630 -4.630 -4.629 -4.626 -4.622 10.58331 19.72214 -3.95234   0.929
 3.40 7.25 -4.539 -4.539 -4.538 -4.536 -4.532 10.73706 19.97262 -3.70187   1.109
 3.40 7.50 -4.446 -4.445 -4.445 -4.442 -4.439 10.88964 20.22298 -3.45149   1.322
 3.40 7.75 -4.350 -4.350 -4.349 -4.347 -4.344 11.04174 20.47320 -3.20126   1.575
 3.40 8.00 -4.253 -4.253 -4.252 -4.250 -4.248 11.19312 20.72329 -2.95117   1.875
 3.42-2.00 -5.880 -5.874 -5.862 -5.839 -5.809  3.50556 10.43996-13.23441   0.001
 3.42-1.50 -5.875 -5.868 -5.856 -5.833 -5.802  3.99471 10.93992-12.73448   0.001
 3.42-1.00 -5.870 -5.863 -5.851 -5.827 -5.796  4.47188 11.43996-12.23441   0.001
 3.42-0.50 -5.860 -5.854 -5.841 -5.817 -5.785  4.92732 11.93997-11.73448   0.001
 3.42 0.00 -5.837 -5.830 -5.817 -5.793 -5.761  5.35793 12.44012-11.23426   0.002
 3.42 0.50 -5.793 -5.786 -5.774 -5.751 -5.721  5.76155 12.94052-10.73377   0.004
 3.42 1.00 -5.733 -5.727 -5.717 -5.697 -5.670  6.13481 13.44185-10.23247   0.005
 3.42 1.25 -5.698 -5.693 -5.684 -5.666 -5.642  6.31044 13.69333 -9.98102   0.006
 3.42 1.50 -5.663 -5.658 -5.650 -5.634 -5.612  6.48216 13.94576 -9.72862   0.008
 3.42 1.75 -5.626 -5.622 -5.614 -5.599 -5.579  6.65023 14.20019 -9.47420   0.010
 3.42 2.00 -5.589 -5.585 -5.578 -5.564 -5.545  6.81829 14.45713 -9.21724   0.012
 3.42 2.25 -5.552 -5.548 -5.542 -5.529 -5.511  6.98968 14.71841 -8.95598   0.015
 3.42 2.50 -5.516 -5.512 -5.506 -5.493 -5.476  7.16525 14.98403 -8.69037   0.018
 3.42 2.75 -5.479 -5.476 -5.470 -5.458 -5.442  7.35197 15.25601 -8.41834   0.022
 3.42 3.00 -5.442 -5.439 -5.434 -5.423 -5.407  7.54851 15.53058 -8.14375   0.028
 3.42 3.20 -5.410 -5.408 -5.403 -5.392 -5.378  7.71616 15.75204 -7.92235   0.034
 3.42 3.40 -5.376 -5.374 -5.370 -5.360 -5.346  7.88753 15.97349 -7.70094   0.041
 3.42 3.60 -5.339 -5.337 -5.334 -5.325 -5.312  8.06301 16.19399 -7.48047   0.050
 3.42 3.80 -5.300 -5.298 -5.295 -5.288 -5.277  8.23983 16.41218 -7.26225   0.061
 3.42 4.00 -5.259 -5.257 -5.255 -5.249 -5.239  8.41664 16.62859 -7.04581   0.075
 3.42 4.20 -5.220 -5.219 -5.216 -5.211 -5.201  8.59005 16.84226 -6.83213   0.092
 3.42 4.40 -5.179 -5.178 -5.176 -5.171 -5.162  8.76103 17.05390 -6.62048   0.112
 3.42 4.60 -5.138 -5.137 -5.135 -5.130 -5.121  8.92900 17.26347 -6.41090   0.135
 3.42 4.80 -5.095 -5.094 -5.092 -5.087 -5.079  9.09389 17.47137 -6.20297   0.164
 3.42 5.00 -5.049 -5.048 -5.046 -5.042 -5.034  9.25624 17.67779 -5.99654   0.197
 3.42 5.20 -5.001 -5.000 -4.999 -4.994 -4.987  9.41624 17.88294 -5.79143   0.237
 3.42 5.40 -4.950 -4.949 -4.947 -4.943 -4.936  9.57442 18.08717 -5.58722   0.284
 3.42 5.60 -4.894 -4.893 -4.892 -4.888 -4.881  9.73121 18.29051 -5.38383   0.340
 3.42 5.80 -4.834 -4.833 -4.832 -4.828 -4.821  9.88650 18.49324 -5.18102   0.407
 3.42 6.00 -4.769 -4.768 -4.767 -4.763 -4.757 10.03981 18.69539 -4.97881   0.486
 3.42 6.25 -4.682 -4.682 -4.680 -4.677 -4.672 10.22728 18.94738 -4.72686   0.603
 3.42 6.50 -4.591 -4.590 -4.589 -4.586 -4.581 10.40943 19.19893 -4.47534   0.743
 3.42 6.75 -4.496 -4.496 -4.495 -4.492 -4.488 10.58377 19.45024 -4.22405   0.908
 3.42 7.00 -4.401 -4.400 -4.399 -4.397 -4.393 10.75159 19.70122 -3.97306   1.102
 3.42 7.25 -4.305 -4.304 -4.303 -4.301 -4.298 10.91251 19.95176 -3.72243   1.326
 3.42 7.50 -4.209 -4.208 -4.207 -4.205 -4.202 11.06893 20.20222 -3.47198   1.588
 3.42 7.75 -4.113 -4.112 -4.112 -4.110 -4.107 11.22231 20.45265 -3.22164   1.895
 3.42 8.00 -4.018 -4.017 -4.017 -4.015 -4.012 11.37218 20.70303 -2.97143   2.252
 3.44-2.00 -5.828 -5.823 -5.812 -5.792 -5.764  3.53058 10.41996-13.25446   0.001
 3.44-1.50 -5.826 -5.820 -5.808 -5.786 -5.756  3.99991 10.91991-12.75449   0.001
 3.44-1.00 -5.814 -5.808 -5.796 -5.772 -5.741  4.48430 11.41996-12.25438   0.001
 3.44-0.50 -5.794 -5.787 -5.774 -5.750 -5.718  4.96647 11.91991-11.75449   0.001
 3.44 0.00 -5.760 -5.753 -5.740 -5.716 -5.684  5.43265 12.41996-11.25438   0.002
 3.44 0.50 -5.709 -5.702 -5.691 -5.668 -5.638  5.87460 12.92012-10.75424   0.004
 3.44 1.00 -5.641 -5.636 -5.626 -5.607 -5.581  6.29048 13.42062-10.25368   0.006
 3.44 1.25 -5.602 -5.597 -5.588 -5.571 -5.548  6.48723 13.67120-10.00305   0.008
 3.44 1.50 -5.561 -5.556 -5.548 -5.532 -5.510  6.67679 13.92221 -9.75203   0.010
 3.44 1.75 -5.517 -5.513 -5.505 -5.490 -5.470  6.85852 14.17408 -9.50021   0.012
 3.44 2.00 -5.471 -5.467 -5.460 -5.445 -5.426  7.03503 14.42716 -9.24726   0.015
 3.44 2.25 -5.424 -5.420 -5.413 -5.399 -5.381  7.20580 14.68240 -8.99206   0.018
 3.44 2.50 -5.376 -5.373 -5.366 -5.353 -5.336  7.37658 14.94047 -8.73400   0.022
 3.44 2.75 -5.329 -5.326 -5.320 -5.308 -5.291  7.54854 15.20356 -8.47088   0.027
 3.44 3.00 -5.283 -5.280 -5.275 -5.264 -5.248  7.72230 15.47114 -8.20329   0.033
 3.44 3.20 -5.246 -5.244 -5.239 -5.229 -5.215  7.86744 15.69014 -7.98443   0.039
 3.44 3.40 -5.210 -5.208 -5.203 -5.194 -5.181  8.01737 15.91006 -7.76455   0.047
