
 ROSSELAND MASS ABSORPTION COEFFICENTS
 logT logP  0km/s  1km/s  2km/s  4km/s  8km/s  log Ne   log Na  log rho IPloCM-1
 3.32-2.00 -5.850 -5.843 -5.832 -5.810 -5.784  3.96544 10.54033-13.13371
 3.32-1.50 -5.870 -5.863 -5.851 -5.829 -5.802  4.40261 11.04139-12.63283
 3.32-1.00 -5.881 -5.874 -5.862 -5.840 -5.812  4.85697 11.54419-12.12995
 3.32-0.50 -5.887 -5.881 -5.868 -5.845 -5.817  5.30428 12.05231-11.62160
 3.32 0.00 -5.886 -5.879 -5.866 -5.843 -5.815  5.73973 12.57368-11.10034
 3.32 0.50 -5.875 -5.867 -5.855 -5.832 -5.805  6.17464 13.11494-10.55925
 3.32 1.00 -5.853 -5.847 -5.834 -5.812 -5.786  6.61606 13.66829-10.00577
 3.32 1.25 -5.837 -5.830 -5.818 -5.797 -5.771  6.83932 13.94330 -9.73071
 3.32 1.50 -5.817 -5.811 -5.798 -5.778 -5.753  7.06258 14.21643 -9.45755
 3.32 1.75 -5.795 -5.788 -5.776 -5.756 -5.731  7.28053 14.48542 -9.18863
 3.32 2.00 -5.770 -5.764 -5.753 -5.733 -5.709  7.49248 14.75113 -8.92300
 3.32 2.25 -5.744 -5.737 -5.727 -5.709 -5.685  7.69133 15.01336 -8.66078
 3.32 2.50 -5.717 -5.711 -5.701 -5.684 -5.661  7.87956 15.27300 -8.40110
 3.32 2.75 -5.687 -5.681 -5.672 -5.657 -5.636  8.05589 15.53044 -8.14354
 3.32 3.00 -5.654 -5.649 -5.642 -5.627 -5.607  8.22453 15.78618 -7.88773
 3.32 3.20 -5.625 -5.621 -5.614 -5.600 -5.581  8.35389 15.98972 -7.68427
 3.32 3.40 -5.593 -5.589 -5.583 -5.570 -5.553  8.48185 16.19260 -7.48145
 3.32 3.60 -5.557 -5.553 -5.548 -5.537 -5.521  8.60840 16.39489 -7.27919
 3.32 3.80 -5.516 -5.514 -5.509 -5.499 -5.485  8.73458 16.59677 -7.07731
 3.32 4.00 -5.471 -5.469 -5.465 -5.457 -5.444  8.86076 16.79824 -6.87582
 3.32 4.20 -5.427 -5.425 -5.421 -5.413 -5.400  8.98893 16.99933 -6.67473
 3.32 4.40 -5.377 -5.375 -5.371 -5.363 -5.350  9.11821 17.20022 -6.47383
 3.32 4.60 -5.322 -5.320 -5.316 -5.308 -5.295  9.24913 17.40096 -6.27308
 3.32 4.80 -5.263 -5.260 -5.257 -5.249 -5.236  9.38084 17.60159 -6.07244
 3.32 5.00 -5.196 -5.194 -5.190 -5.182 -5.169  9.51255 17.80209 -5.87193
 3.32 5.20 -5.122 -5.120 -5.116 -5.108 -5.096  9.64273 18.00238 -5.67161
 3.32 5.40 -5.038 -5.037 -5.033 -5.025 -5.013  9.77131 18.20264 -5.47133
 3.32 5.60 -4.943 -4.941 -4.937 -4.930 -4.918  9.89724 18.40289 -5.27107
 3.32 5.80 -4.832 -4.830 -4.826 -4.819 -4.808 10.01946 18.60312 -5.07083
 3.32 6.00 -4.702 -4.700 -4.697 -4.690 -4.679 10.13862 18.80332 -4.87063
 3.32 6.25 -4.507 -4.505 -4.502 -4.496 -4.486 10.28278 19.05350 -4.62061
 3.32 6.50 -4.267 -4.266 -4.263 -4.258 -4.250 10.42292 19.30363 -4.37059
 3.32 6.75 -3.974 -3.973 -3.971 -3.967 -3.961 10.55955 19.55368 -4.12045
 3.32 7.00 -3.771 -3.770 -3.769 -3.765 -3.760 10.69346 19.80373 -3.87031
 3.32 7.25 -3.646 -3.645 -3.643 -3.640 -3.635 10.82512 20.05379 -3.62029
 3.32 7.50 -3.522 -3.521 -3.519 -3.516 -3.513 10.95506 20.30384 -3.37028
 3.32 7.75 -3.402 -3.401 -3.399 -3.397 -3.394 11.08378 20.55387 -3.12029
 3.32 8.00 -3.287 -3.286 -3.285 -3.282 -3.279 11.21112 20.80387 -2.87031
 3.34-2.00 -5.729 -5.722 -5.710 -5.688 -5.660  4.15715 10.51996-13.15410
 3.34-1.50 -5.775 -5.769 -5.756 -5.733 -5.706  4.52114 11.02036-12.65384
 3.34-1.00 -5.800 -5.793 -5.780 -5.757 -5.729  4.92650 11.52114-12.15292
 3.34-0.50 -5.802 -5.795 -5.782 -5.759 -5.729  5.36605 12.02366-11.65033
 3.34 0.00 -5.787 -5.780 -5.766 -5.742 -5.713  5.81485 12.53199-11.14213
 3.34 0.50 -5.756 -5.748 -5.735 -5.712 -5.683  6.25696 13.05269-10.62142
 3.34 1.00 -5.716 -5.708 -5.695 -5.672 -5.644  6.69609 13.59329-10.08076
 3.34 1.25 -5.693 -5.685 -5.672 -5.649 -5.621  6.91593 13.87002 -9.80415
 3.34 1.50 -5.667 -5.659 -5.646 -5.623 -5.595  7.13577 14.14675 -9.52754
 3.34 1.75 -5.637 -5.629 -5.616 -5.594 -5.566  7.35548 14.42190 -9.25232
 3.34 2.00 -5.604 -5.596 -5.584 -5.562 -5.535  7.57496 14.69522 -8.97881
 3.34 2.25 -5.567 -5.560 -5.548 -5.528 -5.501  7.79112 14.96434 -8.70973
 3.34 2.50 -5.529 -5.523 -5.512 -5.493 -5.467  8.00303 15.23019 -8.44394
 3.34 2.75 -5.491 -5.485 -5.475 -5.457 -5.433  8.20385 15.49262 -8.18142
 3.34 3.00 -5.452 -5.447 -5.438 -5.422 -5.399  8.39498 15.75243 -7.92154
 3.34 3.20 -5.421 -5.416 -5.408 -5.393 -5.373  8.53903 15.95858 -7.71546
 3.34 3.40 -5.389 -5.384 -5.378 -5.364 -5.345  8.67777 16.16364 -7.51046
 3.34 3.60 -5.355 -5.352 -5.345 -5.334 -5.316  8.81077 16.36765 -7.30652
 3.34 3.80 -5.319 -5.317 -5.311 -5.301 -5.285  8.94038 16.57094 -7.10327
 3.34 4.00 -5.281 -5.279 -5.274 -5.265 -5.251  9.06781 16.77357 -6.90067
 3.34 4.20 -5.244 -5.242 -5.238 -5.229 -5.215  9.19328 16.97567 -6.69855
 3.34 4.40 -5.204 -5.202 -5.197 -5.189 -5.175  9.31874 17.17737 -6.49682
 3.34 4.60 -5.160 -5.158 -5.154 -5.145 -5.132  9.44457 17.37867 -6.29544
 3.34 4.80 -5.113 -5.111 -5.107 -5.098 -5.085  9.57126 17.57972 -6.09433
 3.34 5.00 -5.061 -5.059 -5.055 -5.046 -5.033  9.69862 17.78053 -5.89347
 3.34 5.20 -5.006 -5.004 -5.000 -4.991 -4.978  9.82765 17.98119 -5.69289
 3.34 5.40 -4.946 -4.944 -4.940 -4.932 -4.919  9.95668 18.18172 -5.49242
 3.34 5.60 -4.883 -4.881 -4.877 -4.869 -4.856 10.08528 18.38215 -5.29204
 3.34 5.80 -4.816 -4.814 -4.810 -4.802 -4.790 10.21251 18.58250 -5.09171
 3.34 6.00 -4.747 -4.745 -4.741 -4.733 -4.721 10.33846 18.78276 -4.89144
 3.34 6.25 -4.658 -4.656 -4.653 -4.646 -4.634 10.49096 19.03292 -4.64115
 3.34 6.50 -4.568 -4.566 -4.563 -4.556 -4.545 10.63919 19.28308 -4.39094
 3.34 6.75 -4.477 -4.475 -4.472 -4.465 -4.455 10.78258 19.53328 -4.14085
 3.34 7.00 -4.386 -4.385 -4.382 -4.375 -4.366 10.92215 19.78348 -3.89076
 3.34 7.25 -4.296 -4.294 -4.292 -4.285 -4.277 11.05827 20.03350 -3.64064
 3.34 7.50 -4.206 -4.205 -4.202 -4.196 -4.188 11.19173 20.28353 -3.39051
 3.34 7.75 -4.118 -4.116 -4.113 -4.108 -4.101 11.32324 20.53359 -3.14045
 3.34 8.00 -4.029 -4.027 -4.025 -4.020 -4.014 11.45255 20.78369 -2.89042
 3.36-2.00 -5.567 -5.561 -5.547 -5.525 -5.497  4.42045 10.49996-13.17418
 3.36-1.50 -5.637 -5.630 -5.616 -5.593 -5.565  4.74966 10.99996-12.67407
 3.36-1.00 -5.690 -5.682 -5.669 -5.646 -5.616  5.09202 11.50024-12.17380
 3.36-0.50 -5.715 -5.708 -5.694 -5.670 -5.640  5.46657 12.00130-11.67285
 3.36 0.00 -5.705 -5.698 -5.684 -5.660 -5.630  5.88213 12.50406-11.17005
 3.36 0.50 -5.664 -5.657 -5.643 -5.618 -5.589  6.32346 13.01242-10.66194
 3.36 1.00 -5.600 -5.591 -5.577 -5.553 -5.523  6.76886 13.53339-10.14068
 3.36 1.25 -5.562 -5.553 -5.539 -5.514 -5.485  6.99095 13.80201 -9.87206
 3.36 1.50 -5.522 -5.513 -5.499 -5.474 -5.444  7.21245 14.07445 -9.59964
 3.36 1.75 -5.480 -5.472 -5.458 -5.434 -5.404  7.43309 14.35116 -9.32294
 3.36 2.00 -5.437 -5.430 -5.416 -5.392 -5.363  7.65263 14.62788 -9.04624
 3.36 2.25 -5.392 -5.385 -5.372 -5.350 -5.322  7.87065 14.90292 -8.77118
 3.36 2.50 -5.346 -5.339 -5.327 -5.307 -5.279  8.08672 15.17609 -8.49798
 3.36 2.75 -5.297 -5.291 -5.280 -5.261 -5.235  8.30030 15.44513 -8.22904
 3.36 3.00 -5.247 -5.242 -5.232 -5.215 -5.191  8.50987 15.71088 -7.96337
 3.36 3.20 -5.207 -5.203 -5.194 -5.178 -5.156  8.67127 15.92086 -7.75329
 3.36 3.40 -5.168 -5.163 -5.156 -5.142 -5.121  8.82719 16.12919 -7.54487
 3.36 3.60 -5.129 -5.125 -5.118 -5.105 -5.087  8.97641 16.33595 -7.33811
 3.36 3.80 -5.089 -5.086 -5.080 -5.068 -5.051  9.11902 16.54153 -7.13257
 3.36 4.00 -5.048 -5.046 -5.041 -5.031 -5.015  9.25624 16.74601 -6.92812
 3.36 4.20 -5.011 -5.008 -5.004 -4.994 -4.979  9.38791 16.94952 -6.72455
 3.36 4.40 -4.971 -4.969 -4.964 -4.955 -4.941  9.51688 17.15239 -6.52165
 3.36 4.60 -4.929 -4.927 -4.923 -4.914 -4.899  9.64279 17.35468 -6.31940
 3.36 4.80 -4.885 -4.883 -4.878 -4.869 -4.856  9.76767 17.55657 -6.11759
 3.36 5.00 -4.836 -4.834 -4.829 -4.821 -4.807  9.89254 17.75808 -5.91614
 3.36 5.20 -4.783 -4.782 -4.777 -4.768 -4.755 10.01756 17.95923 -5.71492
 3.36 5.40 -4.726 -4.723 -4.719 -4.711 -4.698 10.14279 18.16016 -5.51393
 3.36 5.60 -4.662 -4.660 -4.656 -4.648 -4.635 10.26884 18.36091 -5.31321
 3.36 5.80 -4.594 -4.592 -4.588 -4.580 -4.568 10.39558 18.56153 -5.11266
 3.36 6.00 -4.522 -4.520 -4.516 -4.509 -4.496 10.52231 18.76200 -4.91222
 3.36 6.25 -4.427 -4.426 -4.423 -4.415 -4.404 10.67903 19.01238 -4.66177
 3.36 6.50 -4.331 -4.329 -4.325 -4.319 -4.309 10.83379 19.26269 -4.41139
 3.36 6.75 -4.233 -4.232 -4.229 -4.222 -4.213 10.98416 19.51297 -4.16106
 3.36 7.00 -4.136 -4.135 -4.132 -4.126 -4.118 11.13066 19.76320 -3.91080
 3.36 7.25 -4.040 -4.039 -4.036 -4.032 -4.024 11.27258 20.01330 -3.66070
 3.36 7.50 -3.947 -3.946 -3.943 -3.938 -3.932 11.41095 20.26340 -3.41061
 3.36 7.75 -3.856 -3.854 -3.852 -3.848 -3.841 11.54642 20.51352 -3.16052
 3.36 8.00 -3.766 -3.765 -3.763 -3.759 -3.753 11.67879 20.76365 -2.91045
 3.38-2.00 -5.401 -5.394 -5.382 -5.359 -5.332  4.66153 10.47986-13.19423
 3.38-1.50 -5.473 -5.466 -5.453 -5.429 -5.401  5.00732 10.97987-12.69422
 3.38-1.00 -5.542 -5.534 -5.520 -5.497 -5.467  5.33746 11.48001-12.19409
 3.38-0.50 -5.593 -5.585 -5.571 -5.546 -5.516  5.66848 11.98028-11.69379
 3.38 0.00 -5.610 -5.602 -5.588 -5.563 -5.532  6.01995 12.48130-11.19280
 3.38 0.50 -5.583 -5.575 -5.560 -5.535 -5.504  6.40892 12.98426-10.68973
 3.38 1.00 -5.510 -5.501 -5.487 -5.462 -5.431  6.83468 13.49318-10.18098
 3.38 1.25 -5.459 -5.451 -5.436 -5.411 -5.379  7.05584 13.75227 -9.92189
 3.38 1.50 -5.403 -5.394 -5.380 -5.354 -5.323  7.27830 14.01536 -9.65876
 3.38 1.75 -5.344 -5.335 -5.321 -5.296 -5.264  7.50161 14.28468 -9.38945
 3.38 2.00 -5.283 -5.275 -5.261 -5.237 -5.205  7.72493 14.55763 -9.11651
 3.38 2.25 -5.224 -5.216 -5.203 -5.180 -5.150  7.94656 14.83445 -8.83970
 3.38 2.50 -5.165 -5.158 -5.146 -5.124 -5.096  8.16643 15.11126 -8.56288
 3.38 2.75 -5.106 -5.099 -5.088 -5.069 -5.042  8.38310 15.38608 -8.28804
 3.38 3.00 -5.045 -5.040 -5.030 -5.012 -4.987  8.59682 15.65877 -8.01529
 3.38 3.20 -4.996 -4.991 -4.982 -4.965 -4.942  8.76595 15.87386 -7.80026
 3.38 3.40 -4.947 -4.942 -4.934 -4.919 -4.897  8.93235 16.08685 -7.58731
 3.38 3.60 -4.897 -4.892 -4.885 -4.872 -4.852  9.09529 16.29765 -7.37652
 3.38 3.80 -4.847 -4.843 -4.837 -4.825 -4.807  9.25313 16.50660 -7.16754
 3.38 4.00 -4.797 -4.795 -4.789 -4.779 -4.763  9.40603 16.71391 -6.96019
 3.38 4.20 -4.753 -4.750 -4.745 -4.736 -4.720  9.55156 16.91977 -6.75430
 3.38 4.40 -4.708 -4.705 -4.701 -4.691 -4.676  9.69182 17.12458 -6.54947
 3.38 4.60 -4.663 -4.661 -4.657 -4.647 -4.633  9.82638 17.32842 -6.34566
 3.38 4.80 -4.619 -4.616 -4.612 -4.604 -4.589  9.95697 17.53157 -6.14254
 3.38 5.00 -4.571 -4.569 -4.565 -4.556 -4.543 10.08458 17.73408 -5.94006
 3.38 5.20 -4.521 -4.520 -4.515 -4.507 -4.493 10.20924 17.93605 -5.73809
 3.38 5.40 -4.468 -4.465 -4.462 -4.453 -4.440 10.33351 18.13764 -5.53648
 3.38 5.60 -4.409 -4.406 -4.403 -4.395 -4.382 10.45742 18.33888 -5.33519
 3.38 5.80 -4.345 -4.342 -4.339 -4.331 -4.319 10.58126 18.53988 -5.13413
 3.38 6.00 -4.275 -4.274 -4.270 -4.263 -4.252 10.70509 18.74068 -4.93330
 3.38 6.25 -4.183 -4.181 -4.178 -4.172 -4.161 10.86065 18.99146 -4.68256
 3.38 6.50 -4.086 -4.084 -4.081 -4.075 -4.065 11.01620 19.24205 -4.43203
 3.38 6.75 -3.986 -3.985 -3.982 -3.976 -3.967 11.17006 19.49247 -4.18174
 3.38 7.00 -3.886 -3.884 -3.882 -3.876 -3.869 11.32201 19.74280 -3.93144
 3.38 7.25 -3.787 -3.785 -3.783 -3.778 -3.771 11.46978 19.99308 -3.68115
 3.38 7.50 -3.690 -3.689 -3.686 -3.682 -3.676 11.61395 20.24329 -3.43086
 3.38 7.75 -3.596 -3.595 -3.593 -3.589 -3.583 11.75433 20.49343 -3.18073
 3.38 8.00 -3.505 -3.504 -3.502 -3.499 -3.493 11.89098 20.74351 -2.93070
 3.40-2.00 -5.260 -5.253 -5.241 -5.219 -5.193  4.83078 10.45984-13.21424
 3.40-1.50 -5.319 -5.312 -5.298 -5.275 -5.248  5.21958 10.95985-12.71422
 3.40-1.00 -5.383 -5.375 -5.361 -5.338 -5.308  5.57830 11.45985-12.21417
 3.40-0.50 -5.443 -5.435 -5.421 -5.395 -5.365  5.91450 11.96000-11.71399
 3.40 0.00 -5.481 -5.473 -5.458 -5.433 -5.401  6.24204 12.46045-11.21375
 3.40 0.50 -5.479 -5.471 -5.456 -5.430 -5.398  6.57910 12.96142-10.71265
 3.40 1.00 -5.422 -5.414 -5.399 -5.373 -5.340  6.94512 13.46494-10.20922
 3.40 1.25 -5.372 -5.364 -5.349 -5.322 -5.290  7.14385 13.71869 -9.95542
 3.40 1.50 -5.310 -5.302 -5.287 -5.260 -5.228  7.35122 13.97460 -9.69940
 3.40 1.75 -5.238 -5.230 -5.215 -5.189 -5.157  7.56748 14.23463 -9.43940
 3.40 2.00 -5.160 -5.152 -5.138 -5.113 -5.082  7.78767 14.49886 -9.17522
 3.40 2.25 -5.079 -5.072 -5.059 -5.036 -5.005  8.01122 14.76931 -8.90482
 3.40 2.50 -4.999 -4.992 -4.980 -4.958 -4.930  8.23477 15.04297 -8.63116
 3.40 2.75 -4.920 -4.914 -4.903 -4.883 -4.856  8.45676 15.31978 -8.35429
 3.40 3.00 -4.844 -4.838 -4.828 -4.810 -4.785  8.67688 15.59660 -8.07743
 3.40 3.20 -4.783 -4.778 -4.769 -4.752 -4.729  8.84959 15.81631 -7.85778
 3.40 3.40 -4.723 -4.718 -4.710 -4.695 -4.673  9.01990 16.03449 -7.63968
 3.40 3.60 -4.662 -4.658 -4.651 -4.637 -4.617  9.18805 16.25051 -7.42367
 3.40 3.80 -4.602 -4.598 -4.592 -4.579 -4.561  9.35359 16.46395 -7.21014
 3.40 4.00 -4.541 -4.538 -4.533 -4.522 -4.506  9.51614 16.67532 -6.99870
 3.40 4.20 -4.485 -4.482 -4.478 -4.468 -4.453  9.67466 16.88462 -6.78949
 3.40 4.40 -4.431 -4.428 -4.424 -4.414 -4.400  9.82860 17.09235 -6.58184
 3.40 4.60 -4.378 -4.376 -4.372 -4.363 -4.349  9.97696 17.29854 -6.37570
 3.40 4.80 -4.328 -4.327 -4.322 -4.314 -4.301 10.11937 17.50360 -6.17065
 3.40 5.00 -4.279 -4.277 -4.272 -4.264 -4.251 10.25672 17.70766 -5.96658
 3.40 5.20 -4.229 -4.227 -4.223 -4.216 -4.203 10.38858 17.91087 -5.76332
 3.40 5.40 -4.178 -4.176 -4.172 -4.164 -4.152 10.51735 18.11349 -5.56066
 3.40 5.60 -4.123 -4.121 -4.117 -4.110 -4.099 10.64290 18.31555 -5.35855
 3.40 5.80 -4.064 -4.063 -4.059 -4.052 -4.041 10.76690 18.51724 -5.15682
 3.40 6.00 -4.001 -4.000 -3.997 -3.991 -3.980 10.89003 18.71859 -4.95546
 3.40 6.25 -3.918 -3.916 -3.913 -3.907 -3.898 11.04311 18.96990 -4.70418
 3.40 6.50 -3.827 -3.825 -3.823 -3.817 -3.808 11.19618 19.22089 -4.45321
 3.40 6.75 -3.732 -3.730 -3.728 -3.723 -3.715 11.34924 19.47159 -4.20249
 3.40 7.00 -3.634 -3.632 -3.630 -3.626 -3.618 11.50229 19.72214 -3.95195
 3.40 7.25 -3.535 -3.534 -3.531 -3.527 -3.521 11.65314 19.97262 -3.70155
 3.40 7.50 -3.437 -3.436 -3.434 -3.430 -3.424 11.80182 20.22298 -3.45124
 3.40 7.75 -3.341 -3.340 -3.338 -3.335 -3.330 11.94676 20.47320 -3.20098
 3.40 8.00 -3.249 -3.248 -3.246 -3.243 -3.239 12.08849 20.72329 -2.95078
 3.42-2.00 -5.154 -5.148 -5.136 -5.115 -5.090  4.92717 10.43996-13.23418
 3.42-1.50 -5.192 -5.185 -5.173 -5.151 -5.124  5.35774 10.93992-12.73424
 3.42-1.00 -5.240 -5.233 -5.219 -5.196 -5.168  5.76110 11.43996-12.23418
 3.42-0.50 -5.292 -5.284 -5.270 -5.245 -5.215  6.13322 11.93997-11.73424
 3.42 0.00 -5.334 -5.325 -5.311 -5.285 -5.253  6.47842 12.44012-11.23396
 3.42 0.50 -5.346 -5.337 -5.322 -5.295 -5.262  6.80740 12.94052-10.73353
 3.42 1.00 -5.308 -5.300 -5.284 -5.257 -5.224  7.13672 13.44185-10.23225
 3.42 1.25 -5.267 -5.258 -5.243 -5.216 -5.182  7.30816 13.69333 -9.98080
 3.42 1.50 -5.211 -5.202 -5.187 -5.161 -5.127  7.48615 13.94576 -9.72839
 3.42 1.75 -5.140 -5.132 -5.117 -5.091 -5.058  7.67486 14.20019 -9.47397
 3.42 2.00 -5.057 -5.049 -5.035 -5.010 -4.978  7.87309 14.45713 -9.21703
 3.42 2.25 -4.963 -4.956 -4.942 -4.919 -4.888  8.08269 14.71841 -8.95576
 3.42 2.50 -4.862 -4.856 -4.844 -4.822 -4.793  8.29863 14.98403 -8.69016
 3.42 2.75 -4.760 -4.753 -4.742 -4.723 -4.696  8.52088 15.25601 -8.41810
 3.42 3.00 -4.658 -4.652 -4.643 -4.624 -4.599  8.74312 15.53058 -8.14351
 3.42 3.20 -4.579 -4.574 -4.565 -4.548 -4.525  8.92014 15.75204 -7.92213
 3.42 3.40 -4.503 -4.498 -4.490 -4.475 -4.454  9.09619 15.97349 -7.70076
 3.42 3.60 -4.429 -4.424 -4.418 -4.404 -4.384  9.27005 16.19399 -7.48028
 3.42 3.80 -4.356 -4.353 -4.347 -4.335 -4.317  9.44040 16.41218 -7.26203
 3.42 4.00 -4.286 -4.283 -4.278 -4.267 -4.252  9.60799 16.62859 -7.04552
 3.42 4.20 -4.221 -4.218 -4.213 -4.203 -4.189  9.77289 16.84226 -6.83185
 3.42 4.40 -4.156 -4.154 -4.149 -4.141 -4.127  9.93452 17.05390 -6.62020
 3.42 4.60 -4.095 -4.092 -4.088 -4.080 -4.068 10.09279 17.26347 -6.41057
 3.42 4.80 -4.036 -4.034 -4.031 -4.023 -4.010 10.24686 17.47137 -6.20258
 3.42 5.00 -3.979 -3.978 -3.974 -3.966 -3.955 10.39655 17.67779 -5.99611
 3.42 5.20 -3.925 -3.924 -3.921 -3.914 -3.902 10.54004 17.88294 -5.79104
 3.42 5.40 -3.872 -3.871 -3.868 -3.860 -3.851 10.67876 18.08717 -5.58691
 3.42 5.60 -3.819 -3.817 -3.814 -3.808 -3.798 10.81233 18.29051 -5.38364
 3.42 5.80 -3.764 -3.762 -3.760 -3.753 -3.744 10.94201 18.49324 -5.18096
 3.42 6.00 -3.706 -3.705 -3.703 -3.697 -3.688 11.06856 18.69539 -4.97881
 3.42 6.25 -3.631 -3.630 -3.627 -3.622 -3.614 11.22294 18.94738 -4.72669
 3.42 6.50 -3.551 -3.549 -3.547 -3.542 -3.534 11.37566 19.19893 -4.47509
 3.42 6.75 -3.464 -3.463 -3.461 -3.456 -3.449 11.52746 19.45024 -4.22395
 3.42 7.00 -3.373 -3.372 -3.370 -3.366 -3.360 11.67852 19.70122 -3.97306
 3.42 7.25 -3.280 -3.279 -3.277 -3.273 -3.267 11.82924 19.95176 -3.72231
 3.42 7.50 -3.185 -3.184 -3.182 -3.179 -3.173 11.97909 20.20222 -3.47173
 3.42 7.75 -3.091 -3.090 -3.088 -3.085 -3.079 12.12653 20.45265 -3.22130
 3.42 8.00 -2.999 -2.998 -2.996 -2.993 -2.988 12.27207 20.70303 -2.97102
 3.44-2.00 -5.082 -5.076 -5.065 -5.044 -5.020  4.96483 10.41996-13.25415
 3.44-1.50 -5.100 -5.093 -5.081 -5.060 -5.034  5.43201 10.91986-12.75424
 3.44-1.00 -5.127 -5.120 -5.107 -5.085 -5.058  5.87413 11.41996-12.25415
 3.44-0.50 -5.161 -5.153 -5.140 -5.117 -5.087  6.28981 11.91991-11.75424
 3.44 0.00 -5.192 -5.184 -5.169 -5.144 -5.113  6.67505 12.41996-11.25407
 3.44 0.50 -5.202 -5.193 -5.178 -5.152 -5.119  7.03020 12.92012-10.75399
 3.44 1.00 -5.170 -5.161 -5.146 -5.118 -5.085  7.36361 13.42062-10.25344
 3.44 1.25 -5.133 -5.124 -5.110 -5.083 -5.048  7.52686 13.67121-10.00282
 3.44 1.50 -5.083 -5.075 -5.060 -5.033 -4.999  7.69011 13.92221 -9.75178
 3.44 1.75 -5.018 -5.010 -4.995 -4.969 -4.936  7.85716 14.17402 -9.49997
 3.44 2.00 -4.938 -4.932 -4.917 -4.893 -4.860  8.02857 14.42700 -9.24703
 3.44 2.25 -4.845 -4.837 -4.825 -4.802 -4.771  8.20938 14.68227 -8.99183
 3.44 2.50 -4.739 -4.732 -4.720 -4.698 -4.669  8.39933 14.94042 -8.73377
 3.44 2.75 -4.621 -4.616 -4.605 -4.585 -4.557  8.60181 15.20349 -8.47062
 3.44 3.00 -4.499 -4.493 -4.484 -4.465 -4.440  8.81231 15.47100 -8.20301
 3.44 3.20 -4.401 -4.395 -4.386 -4.370 -4.347  8.98785 15.68978 -7.98421
 3.44 3.40 -4.304 -4.300 -4.291 -4.277 -4.256  9.16338 15.90962 -7.76436
 3.44 3.60 -4.211 -4.207 -4.201 -4.187 -4.169  9.33883 16.13055 -7.54344
 3.44 3.80 -4.123 -4.120 -4.114 -4.102 -4.086  9.51382 16.35177 -7.32225
 3.44 4.00 -4.039 -4.037 -4.032 -4.022 -4.007  9.68833 16.57299 -7.10106
 3.44 4.20 -3.963 -3.960 -3.956 -3.947 -3.934  9.85851 16.79125 -6.88279
 3.44 4.40 -3.889 -3.887 -3.883 -3.876 -3.863 10.02573 17.00754 -6.66650
 3.44 4.60 -3.820 -3.818 -3.815 -3.807 -3.796 10.18997 17.22155 -6.45251
 3.44 4.80 -3.754 -3.752 -3.749 -3.743 -3.732 10.35085 17.43328 -6.24080
 3.44 5.00 -3.690 -3.688 -3.685 -3.679 -3.669 10.50826 17.64306 -6.03105
 3.44 5.20 -3.631 -3.629 -3.626 -3.620 -3.610 10.66196 17.85093 -5.82315
 3.44 5.40 -3.572 -3.570 -3.568 -3.562 -3.553 10.81136 18.05743 -5.61661
 3.44 5.60 -3.515 -3.514 -3.511 -3.505 -3.497 10.95582 18.26264 -5.41140
 3.44 5.80 -3.459 -3.458 -3.455 -3.451 -3.442 11.09515 18.46692 -5.20713
 3.44 6.00 -3.404 -3.403 -3.400 -3.395 -3.387 11.22994 18.67034 -5.00371
 3.44 6.25 -3.333 -3.332 -3.330 -3.326 -3.318 11.39182 18.92360 -4.75039
 3.44 6.50 -3.260 -3.259 -3.257 -3.253 -3.246 11.54900 19.17609 -4.49785
 3.44 6.75 -3.183 -3.182 -3.180 -3.176 -3.170 11.70229 19.42805 -4.24586
 3.44 7.00 -3.102 -3.101 -3.099 -3.095 -3.089 11.85352 19.67952 -3.99439
 3.44 7.25 -3.017 -3.016 -3.014 -3.010 -3.005 12.00352 19.93049 -3.74345
 3.44 7.50 -2.929 -2.928 -2.926 -2.923 -2.917 12.15229 20.18127 -3.49268
 3.44 7.75 -2.839 -2.839 -2.837 -2.833 -2.829 12.30004 20.43196 -3.24199
 3.44 8.00 -2.750 -2.750 -2.748 -2.745 -2.740 12.44669 20.68251 -2.99140
 3.46-2.00 -5.037 -5.032 -5.022 -5.004 -4.982  4.96298 10.39985-13.27417
 3.46-1.50 -5.038 -5.032 -5.020 -5.001 -4.977  5.45286 10.89982-12.77417
 3.46-1.00 -5.046 -5.040 -5.027 -5.006 -4.980  5.92896 11.39985-12.27417
 3.46-0.50 -5.060 -5.053 -5.040 -5.018 -4.990  6.38166 11.89988-11.77417
 3.46 0.00 -5.072 -5.065 -5.051 -5.027 -4.997  6.80781 12.39985-11.27417
 3.46 0.50 -5.068 -5.060 -5.045 -5.020 -4.988  7.20439 12.89993-10.77417
