
 ROSSELAND MASS ABSORPTION COEFFICENTS
 logT logP  0km/s  1km/s  2km/s  4km/s  8km/s  log Ne   log Na  log rho IPloCM-1
 3.32-2.00 -5.570 -5.576 -5.562 -5.539 -5.509  4.40140 10.53995-13.13324
 3.32-1.50 -5.588 -5.595 -5.580 -5.555 -5.526  4.85400 11.04060-12.63246
 3.32-1.00 -5.611 -5.618 -5.602 -5.577 -5.547  5.29667 11.54370-12.12948
 3.32-0.50 -5.634 -5.642 -5.626 -5.599 -5.568  5.72198 12.05192-11.62124
 3.32 0.00 -5.649 -5.656 -5.640 -5.614 -5.582  6.14145 12.57334-11.09985
 3.32 0.50 -5.645 -5.653 -5.636 -5.610 -5.578  6.57264 13.11428-10.55878
 3.32 1.00 -5.622 -5.629 -5.613 -5.587 -5.556  7.02243 13.66792-10.00529
 3.32 1.25 -5.605 -5.612 -5.596 -5.570 -5.539  7.24529 13.94301 -9.73022
 3.32 1.50 -5.587 -5.594 -5.578 -5.552 -5.521  7.46509 14.21617 -9.45705
 3.32 1.75 -5.568 -5.574 -5.559 -5.534 -5.503  7.67015 14.48506 -9.18821
 3.32 2.00 -5.547 -5.553 -5.539 -5.514 -5.485  7.86386 14.75066 -8.92263
 3.32 2.25 -5.524 -5.530 -5.516 -5.493 -5.465  8.04404 15.01288 -8.66030
 3.32 2.50 -5.499 -5.504 -5.492 -5.470 -5.443  8.21564 15.27254 -8.40055
 3.32 2.75 -5.469 -5.474 -5.462 -5.442 -5.417  8.37942 15.53000 -8.14312
 3.32 3.00 -5.434 -5.439 -5.428 -5.410 -5.386  8.54033 15.78576 -7.88740
 3.32 3.20 -5.401 -5.406 -5.396 -5.379 -5.356  8.66730 15.98929 -7.68384
 3.32 3.40 -5.364 -5.368 -5.359 -5.344 -5.322  8.79427 16.19217 -7.48095
 3.32 3.60 -5.322 -5.325 -5.317 -5.303 -5.283  8.92195 16.39444 -7.27873
 3.32 3.80 -5.273 -5.277 -5.269 -5.256 -5.238  9.05111 16.59629 -7.07693
 3.32 4.00 -5.219 -5.222 -5.216 -5.205 -5.188  9.18127 16.79775 -6.87550
 3.32 4.20 -5.165 -5.168 -5.162 -5.150 -5.133  9.31330 16.99886 -6.67430
 3.32 4.40 -5.104 -5.107 -5.101 -5.090 -5.074  9.44533 17.19978 -6.47334
 3.32 4.60 -5.040 -5.043 -5.037 -5.026 -5.010  9.57677 17.40054 -6.27261
 3.32 4.80 -4.972 -4.975 -4.969 -4.958 -4.941  9.70636 17.60118 -6.07205
 3.32 5.00 -4.895 -4.898 -4.893 -4.882 -4.865  9.83430 17.80168 -5.87160
 3.32 5.20 -4.813 -4.815 -4.810 -4.799 -4.782  9.95821 18.00196 -5.67123
 3.32 5.40 -4.719 -4.722 -4.716 -4.706 -4.690 10.07904 18.20221 -5.47092
 3.32 5.60 -4.613 -4.615 -4.610 -4.600 -4.584 10.19649 18.40246 -5.27068
 3.32 5.80 -4.490 -4.493 -4.488 -4.478 -4.464 10.31092 18.60269 -5.07047
 3.32 6.00 -4.349 -4.352 -4.347 -4.338 -4.324 10.42275 18.80291 -4.87031
 3.32 6.25 -4.140 -4.142 -4.138 -4.130 -4.118 10.55941 19.05308 -4.62017
 3.32 6.50 -3.886 -3.887 -3.884 -3.878 -3.867 10.69338 19.30320 -4.37008
 3.32 6.75 -3.580 -3.581 -3.578 -3.572 -3.565 10.82513 19.55327 -4.12003
 3.32 7.00 -3.375 -3.376 -3.373 -3.369 -3.363 10.95521 19.80332 -3.86999
 3.32 7.25 -3.254 -3.255 -3.253 -3.249 -3.244 11.08396 20.05338 -3.61994
 3.32 7.50 -3.139 -3.140 -3.138 -3.135 -3.130 11.21165 20.30341 -3.36988
 3.32 7.75 -3.028 -3.029 -3.027 -3.024 -3.020 11.33858 20.55342 -3.11978
 3.32 8.00 -2.923 -2.924 -2.922 -2.919 -2.916 11.46464 20.80339 -2.86967
 3.34-2.00 -5.482 -5.488 -5.473 -5.449 -5.419  4.52061 10.51957-13.15366
 3.34-1.50 -5.510 -5.517 -5.502 -5.477 -5.446  4.92536 11.01995-12.65345
 3.34-1.00 -5.525 -5.532 -5.517 -5.491 -5.459  5.36324 11.52061-12.15249
 3.34-0.50 -5.534 -5.541 -5.525 -5.498 -5.465  5.80747 12.02325-11.64975
 3.34 0.00 -5.533 -5.541 -5.523 -5.495 -5.462  6.23930 12.53148-11.14164
 3.34 0.50 -5.514 -5.522 -5.504 -5.475 -5.441  6.66323 13.05231-10.62088
 3.34 1.00 -5.471 -5.479 -5.461 -5.432 -5.398  7.09307 13.59284-10.08029
 3.34 1.25 -5.441 -5.450 -5.431 -5.403 -5.368  7.31425 13.86949 -9.80362
 3.34 1.50 -5.408 -5.416 -5.398 -5.369 -5.335  7.53542 14.14613 -9.52695
 3.34 1.75 -5.372 -5.379 -5.362 -5.334 -5.300  7.75589 14.42132 -9.25179
 3.34 2.00 -5.336 -5.343 -5.327 -5.300 -5.266  7.97511 14.69478 -8.97840
 3.34 2.25 -5.300 -5.307 -5.291 -5.266 -5.234  8.18200 14.96387 -8.70929
 3.34 2.50 -5.265 -5.272 -5.257 -5.233 -5.203  8.37876 15.22968 -8.44346
 3.34 2.75 -5.230 -5.236 -5.223 -5.201 -5.172  8.56211 15.49219 -8.18101
 3.34 3.00 -5.195 -5.201 -5.189 -5.168 -5.141  8.73624 15.75205 -7.92118
 3.34 3.20 -5.164 -5.170 -5.158 -5.139 -5.114  8.86888 15.95816 -7.71502
 3.34 3.40 -5.131 -5.137 -5.126 -5.108 -5.085  8.99892 16.16318 -7.50995
 3.34 3.60 -5.094 -5.099 -5.090 -5.074 -5.052  9.12608 16.36719 -7.30591
 3.34 3.80 -5.053 -5.058 -5.049 -5.034 -5.014  9.25233 16.57049 -7.10260
 3.34 4.00 -5.008 -5.011 -5.004 -4.991 -4.972  9.37858 16.77313 -6.89997
 3.34 4.20 -4.962 -4.965 -4.959 -4.946 -4.927  9.50545 16.97522 -6.69797
 3.34 4.40 -4.911 -4.914 -4.908 -4.895 -4.877  9.63287 17.17691 -6.49634
 3.34 4.60 -4.858 -4.861 -4.854 -4.842 -4.825  9.76151 17.37822 -6.29505
 3.34 4.80 -4.802 -4.805 -4.799 -4.786 -4.769  9.89093 17.57928 -6.09398
 3.34 5.00 -4.742 -4.745 -4.739 -4.727 -4.709 10.02036 17.78010 -5.89313
 3.34 5.20 -4.681 -4.684 -4.678 -4.666 -4.648 10.14843 17.98075 -5.69247
 3.34 5.40 -4.617 -4.620 -4.614 -4.602 -4.585 10.27507 18.18127 -5.49192
 3.34 5.60 -4.550 -4.553 -4.547 -4.536 -4.519 10.39944 18.38169 -5.29146
 3.34 5.80 -4.482 -4.485 -4.480 -4.468 -4.452 10.52053 18.58204 -5.09107
 3.34 6.00 -4.413 -4.415 -4.410 -4.399 -4.383 10.63889 18.78233 -4.89076
 3.34 6.25 -4.324 -4.327 -4.321 -4.312 -4.296 10.78237 19.03263 -4.64057
 3.34 6.50 -4.235 -4.238 -4.233 -4.223 -4.209 10.92205 19.28285 -4.39041
 3.34 6.75 -4.145 -4.147 -4.143 -4.134 -4.120 11.05834 19.53298 -4.14024
 3.34 7.00 -4.055 -4.057 -4.053 -4.045 -4.032 11.19201 19.78305 -3.89008
 3.34 7.25 -3.965 -3.968 -3.963 -3.955 -3.943 11.32352 20.03306 -3.64003
 3.34 7.50 -3.876 -3.878 -3.874 -3.866 -3.856 11.45332 20.28308 -3.38998
 3.34 7.75 -3.786 -3.789 -3.784 -3.778 -3.768 11.58187 20.53315 -3.13988
 3.34 8.00 -3.697 -3.700 -3.695 -3.689 -3.680 11.70902 20.78326 -2.88975
 3.36-2.00 -5.340 -5.345 -5.331 -5.307 -5.277  4.74943 10.49941-13.17373
 3.36-1.50 -5.404 -5.409 -5.395 -5.370 -5.338  5.09132 10.99948-12.67366
 3.36-1.00 -5.441 -5.448 -5.432 -5.407 -5.374  5.46553 11.49982-12.17334
 3.36-0.50 -5.453 -5.460 -5.444 -5.417 -5.383  5.87933 12.00087-11.67244
 3.36 0.00 -5.442 -5.449 -5.433 -5.404 -5.368  6.31597 12.50352-11.16960
 3.36 0.50 -5.404 -5.412 -5.394 -5.364 -5.328  6.75074 13.01157-10.66134
 3.36 1.00 -5.337 -5.345 -5.326 -5.295 -5.258  7.17898 13.53301-10.14020
 3.36 1.25 -5.293 -5.302 -5.283 -5.251 -5.214  7.39400 13.80167 -9.87167
 3.36 1.50 -5.245 -5.254 -5.235 -5.204 -5.166  7.61002 14.07408 -9.59929
 3.36 1.75 -5.194 -5.202 -5.184 -5.154 -5.117  7.82904 14.35073 -9.32252
 3.36 2.00 -5.142 -5.149 -5.132 -5.103 -5.067  8.04805 14.62737 -9.04576
 3.36 2.25 -5.088 -5.095 -5.078 -5.051 -5.017  8.26606 14.90248 -8.77066
 3.36 2.50 -5.035 -5.042 -5.027 -5.001 -4.969  8.48244 15.17580 -8.49744
 3.36 2.75 -4.984 -4.991 -4.977 -4.953 -4.922  8.68915 15.44473 -8.22835
 3.36 3.00 -4.937 -4.943 -4.929 -4.907 -4.878  8.88694 15.71037 -7.96257
 3.36 3.20 -4.898 -4.904 -4.892 -4.871 -4.844  9.03552 15.92047 -7.75265
 3.36 3.40 -4.861 -4.866 -4.855 -4.836 -4.810  9.17815 16.12890 -7.54435
 3.36 3.60 -4.823 -4.828 -4.817 -4.799 -4.775  9.31443 16.33566 -7.33757
 3.36 3.80 -4.782 -4.786 -4.778 -4.761 -4.739  9.44648 16.54118 -7.13192
 3.36 4.00 -4.738 -4.742 -4.735 -4.720 -4.700  9.57542 16.74562 -6.92738
 3.36 4.20 -4.696 -4.699 -4.693 -4.679 -4.659  9.70111 16.94920 -6.72390
 3.36 4.40 -4.650 -4.653 -4.646 -4.633 -4.614  9.82680 17.15213 -6.52105
 3.36 4.60 -4.600 -4.604 -4.597 -4.584 -4.566  9.95248 17.35441 -6.31878
 3.36 4.80 -4.549 -4.552 -4.546 -4.533 -4.515 10.07817 17.55626 -6.11691
 3.36 5.00 -4.492 -4.495 -4.489 -4.477 -4.459 10.20385 17.75770 -5.91542
 3.36 5.20 -4.433 -4.436 -4.430 -4.418 -4.401 10.33082 17.95880 -5.71435
 3.36 5.40 -4.369 -4.372 -4.367 -4.355 -4.338 10.45778 18.15970 -5.51345
 3.36 5.60 -4.302 -4.305 -4.299 -4.288 -4.272 10.58432 18.36044 -5.31270
 3.36 5.80 -4.232 -4.235 -4.229 -4.219 -4.203 10.70949 18.56106 -5.11204
 3.36 6.00 -4.160 -4.162 -4.158 -4.147 -4.132 10.83340 18.76155 -4.91151
 3.36 6.25 -4.068 -4.070 -4.066 -4.056 -4.042 10.98381 19.01190 -4.66112
 3.36 6.50 -3.975 -3.977 -3.973 -3.964 -3.951 11.13033 19.26221 -4.41083
 3.36 6.75 -3.882 -3.884 -3.880 -3.872 -3.860 11.27266 19.51253 -4.16062
 3.36 7.00 -3.789 -3.792 -3.787 -3.780 -3.769 11.41145 19.76283 -3.91045
 3.36 7.25 -3.698 -3.700 -3.696 -3.689 -3.679 11.54689 20.01288 -3.66029
 3.36 7.50 -3.607 -3.609 -3.605 -3.599 -3.590 11.67979 20.26293 -3.41016
 3.36 7.75 -3.518 -3.519 -3.516 -3.510 -3.502 11.81081 20.51304 -3.16010
 3.36 8.00 -3.429 -3.430 -3.428 -3.422 -3.415 11.93972 20.76320 -2.91010
 3.38-2.00 -5.163 -5.168 -5.155 -5.131 -5.102  5.00689 10.47943-13.19375
 3.38-1.50 -5.247 -5.252 -5.239 -5.213 -5.182  5.33706 10.97941-12.69379
 3.38-1.00 -5.317 -5.322 -5.307 -5.281 -5.248  5.66792 11.47958-12.19362
 3.38-0.50 -5.358 -5.365 -5.349 -5.321 -5.287  6.01870 11.97982-11.69336
 3.38 0.00 -5.361 -5.368 -5.351 -5.322 -5.286  6.40603 12.48087-11.19233
 3.38 0.50 -5.319 -5.328 -5.309 -5.279 -5.241  6.82679 12.98381-10.68931
 3.38 1.00 -5.232 -5.241 -5.222 -5.189 -5.150  7.25912 13.49262-10.18052
 3.38 1.25 -5.173 -5.182 -5.163 -5.131 -5.091  7.47474 13.75177 -9.92136
 3.38 1.50 -5.107 -5.116 -5.097 -5.064 -5.025  7.69037 14.01494 -9.65817
 3.38 1.75 -5.038 -5.047 -5.028 -4.996 -4.958  7.90687 14.28425 -9.38890
 3.38 2.00 -4.965 -4.974 -4.955 -4.925 -4.887  8.12385 14.55715 -9.11600
 3.38 2.25 -4.893 -4.901 -4.884 -4.855 -4.820  8.34146 14.83387 -8.83920
 3.38 2.50 -4.821 -4.829 -4.812 -4.785 -4.751  8.55907 15.11059 -8.56241
 3.38 2.75 -4.750 -4.757 -4.742 -4.717 -4.685  8.77481 15.38546 -8.28756
 3.38 3.00 -4.682 -4.689 -4.675 -4.652 -4.621  8.98802 15.65830 -8.01480
 3.38 3.20 -4.629 -4.636 -4.623 -4.601 -4.573  9.15279 15.87335 -7.79974
 3.38 3.40 -4.579 -4.585 -4.573 -4.553 -4.526  9.31238 16.08631 -7.58678
 3.38 3.60 -4.531 -4.537 -4.526 -4.508 -4.483  9.46538 16.29713 -7.37603
 3.38 3.80 -4.484 -4.489 -4.480 -4.463 -4.440  9.61132 16.50614 -7.16710
 3.38 4.00 -4.438 -4.442 -4.434 -4.419 -4.398  9.75143 16.71349 -6.95979
 3.38 4.20 -4.394 -4.399 -4.391 -4.377 -4.357  9.88535 16.91930 -6.75386
 3.38 4.40 -4.350 -4.353 -4.347 -4.333 -4.314 10.01589 17.12408 -6.54900
 3.38 4.60 -4.305 -4.308 -4.302 -4.290 -4.270 10.14282 17.32791 -6.34520
 3.38 4.80 -4.259 -4.262 -4.255 -4.244 -4.225 10.26816 17.53107 -6.14213
 3.38 5.00 -4.208 -4.211 -4.205 -4.193 -4.176 10.39287 17.73360 -5.93968
 3.38 5.20 -4.155 -4.159 -4.152 -4.142 -4.124 10.51714 17.93555 -5.73766
 3.38 5.40 -4.098 -4.100 -4.095 -4.084 -4.068 10.64141 18.13714 -5.53602
 3.38 5.60 -4.035 -4.037 -4.033 -4.022 -4.006 10.76600 18.33841 -5.33475
 3.38 5.80 -3.968 -3.970 -3.966 -3.956 -3.941 10.89089 18.53946 -5.13373
 3.38 6.00 -3.898 -3.900 -3.896 -3.887 -3.872 11.01578 18.74028 -4.93293
 3.38 6.25 -3.807 -3.809 -3.805 -3.796 -3.783 11.16985 18.99099 -4.68216
 3.38 6.50 -3.713 -3.715 -3.711 -3.704 -3.691 11.32181 19.24155 -4.43156
 3.38 6.75 -3.619 -3.620 -3.617 -3.610 -3.599 11.46990 19.49203 -4.18107
 3.38 7.00 -3.525 -3.527 -3.523 -3.516 -3.507 11.61448 19.74241 -3.93070
 3.38 7.25 -3.432 -3.433 -3.430 -3.424 -3.415 11.75500 19.99263 -3.68055
 3.38 7.50 -3.340 -3.341 -3.338 -3.333 -3.325 11.89226 20.24279 -3.43039
 3.38 7.75 -3.250 -3.251 -3.249 -3.244 -3.236 12.02677 20.49293 -3.18019
 3.38 8.00 -3.162 -3.163 -3.161 -3.156 -3.150 12.15836 20.74304 -2.92996
 3.40-2.00 -4.991 -4.996 -4.983 -4.961 -4.935  5.21932 10.45939-13.21375
 3.40-1.50 -5.073 -5.078 -5.064 -5.041 -5.011  5.57795 10.95938-12.71377
 3.40-1.00 -5.154 -5.159 -5.145 -5.119 -5.087  5.91418 11.45939-12.21375
 3.40-0.50 -5.219 -5.226 -5.210 -5.183 -5.148  6.24155 11.95952-11.71354
 3.40 0.00 -5.254 -5.261 -5.244 -5.214 -5.178  6.57807 12.45984-11.21325
 3.40 0.50 -5.234 -5.241 -5.223 -5.192 -5.154  6.94216 12.96099-10.71220
 3.40 1.00 -5.148 -5.157 -5.138 -5.106 -5.065  7.34282 13.46434-10.20873
 3.40 1.25 -5.082 -5.091 -5.072 -5.039 -4.999  7.55361 13.71813 -9.95495
 3.40 1.50 -5.004 -5.013 -4.993 -4.961 -4.920  7.76716 13.97414 -9.69897
 3.40 1.75 -4.915 -4.924 -4.905 -4.874 -4.834  7.98227 14.23420 -9.43896
 3.40 2.00 -4.820 -4.829 -4.811 -4.780 -4.742  8.19866 14.49845 -9.17477
 3.40 2.25 -4.724 -4.732 -4.715 -4.686 -4.648  8.41637 14.76891 -8.90442
 3.40 2.50 -4.627 -4.635 -4.619 -4.591 -4.556  8.63407 15.04258 -8.63078
 3.40 2.75 -4.534 -4.542 -4.526 -4.501 -4.468  8.85131 15.31937 -8.35387
 3.40 3.00 -4.445 -4.452 -4.437 -4.414 -4.383  9.06781 15.59616 -8.07696
 3.40 3.20 -4.376 -4.382 -4.369 -4.347 -4.319  9.23890 15.81580 -7.85726
 3.40 3.40 -4.310 -4.316 -4.304 -4.284 -4.258  9.40761 16.03391 -7.63911
 3.40 3.60 -4.247 -4.252 -4.241 -4.224 -4.199  9.57312 16.24992 -7.42311
 3.40 3.80 -4.187 -4.192 -4.182 -4.167 -4.144  9.73354 16.46343 -7.20965
 3.40 4.00 -4.131 -4.134 -4.127 -4.113 -4.092  9.88908 16.67486 -6.99827
 3.40 4.20 -4.080 -4.083 -4.077 -4.063 -4.044 10.03713 16.88411 -6.78904
 3.40 4.40 -4.032 -4.034 -4.029 -4.016 -3.998 10.17958 17.09180 -6.58135
 3.40 4.60 -3.986 -3.988 -3.983 -3.971 -3.953 10.31593 17.29801 -6.37509
 3.40 4.80 -3.941 -3.944 -3.938 -3.927 -3.911 10.44779 17.50314 -6.16991
 3.40 5.00 -3.895 -3.898 -3.892 -3.882 -3.865 10.57623 17.70723 -5.96577
 3.40 5.20 -3.848 -3.851 -3.846 -3.836 -3.820 10.70158 17.91039 -5.76264
 3.40 5.40 -3.798 -3.801 -3.795 -3.786 -3.771 10.82590 18.11297 -5.56010
 3.40 5.60 -3.743 -3.746 -3.741 -3.732 -3.717 10.94922 18.31505 -5.35809
 3.40 5.80 -3.684 -3.686 -3.682 -3.673 -3.659 11.07221 18.51679 -5.15641
 3.40 6.00 -3.620 -3.623 -3.618 -3.610 -3.597 11.19507 18.71817 -4.95507
 3.40 6.25 -3.536 -3.538 -3.534 -3.526 -3.514 11.34865 18.96942 -4.70372
 3.40 6.50 -3.447 -3.448 -3.445 -3.438 -3.427 11.50202 19.22037 -4.45272
 3.40 6.75 -3.355 -3.356 -3.353 -3.347 -3.337 11.65334 19.47114 -4.20207
 3.40 7.00 -3.262 -3.263 -3.260 -3.254 -3.245 11.80250 19.72173 -3.95156
 3.40 7.25 -3.168 -3.170 -3.167 -3.162 -3.154 11.94786 19.97215 -3.70111
 3.40 7.50 -3.077 -3.078 -3.076 -3.071 -3.063 12.08991 20.22246 -3.45075
 3.40 7.75 -2.986 -2.988 -2.985 -2.981 -2.975 12.22854 20.47271 -3.20052
 3.40 8.00 -2.899 -2.900 -2.898 -2.894 -2.888 12.36380 20.72288 -2.95039
 3.42-2.00 -4.851 -4.856 -4.844 -4.824 -4.799  5.35736 10.43949-13.23374
 3.42-1.50 -4.914 -4.919 -4.906 -4.884 -4.856  5.76072 10.93942-12.73377
 3.42-1.00 -4.985 -4.991 -4.977 -4.953 -4.922  6.13290 11.43949-12.23366
 3.42-0.50 -5.055 -5.062 -5.046 -5.020 -4.986  6.47799 11.93947-11.73377
 3.42 0.00 -5.106 -5.114 -5.096 -5.068 -5.031  6.80686 12.43965-11.23351
 3.42 0.50 -5.114 -5.121 -5.104 -5.072 -5.033  7.13577 12.94002-10.73306
 3.42 1.00 -5.053 -5.061 -5.042 -5.009 -4.967  7.48302 13.44138-10.23181
 3.42 1.25 -4.992 -5.000 -4.981 -4.949 -4.906  7.66937 13.69287 -9.98035
 3.42 1.50 -4.913 -4.922 -4.903 -4.871 -4.828  7.86386 13.94532 -9.72793
 3.42 1.75 -4.818 -4.826 -4.808 -4.776 -4.734  8.06732 14.19974 -9.47349
 3.42 2.00 -4.709 -4.718 -4.700 -4.669 -4.628  8.27623 14.45667 -9.21653
 3.42 2.25 -4.591 -4.599 -4.582 -4.553 -4.515  8.48950 14.71795 -8.95519
 3.42 2.50 -4.468 -4.476 -4.460 -4.433 -4.396  8.70527 14.98358 -8.68952
 3.42 2.75 -4.348 -4.355 -4.340 -4.315 -4.282  8.92336 15.25564 -8.41756
 3.42 3.00 -4.232 -4.238 -4.225 -4.202 -4.171  9.14145 15.53020 -8.14303
 3.42 3.20 -4.145 -4.151 -4.139 -4.118 -4.089  9.31500 15.75152 -7.92164
 3.42 3.40 -4.063 -4.067 -4.057 -4.038 -4.011  9.48749 15.97284 -7.70025
 3.42 3.60 -3.985 -3.989 -3.980 -3.962 -3.938  9.65833 16.19329 -7.47978
 3.42 3.80 -3.910 -3.914 -3.906 -3.891 -3.870  9.82611 16.41155 -7.26153
 3.42 4.00 -3.841 -3.844 -3.837 -3.824 -3.804  9.99096 16.62808 -7.04503
 3.42 4.20 -3.778 -3.781 -3.775 -3.762 -3.745 10.15133 16.84171 -6.83139
 3.42 4.40 -3.719 -3.722 -3.716 -3.706 -3.689 10.30692 17.05332 -6.61976
 3.42 4.60 -3.666 -3.668 -3.663 -3.653 -3.637 10.45678 17.26290 -6.41015
 3.42 4.80 -3.617 -3.619 -3.615 -3.605 -3.590 10.60054 17.47087 -6.20217
 3.42 5.00 -3.570 -3.572 -3.568 -3.558 -3.544 10.73902 17.67733 -5.99568
 3.42 5.20 -3.525 -3.527 -3.523 -3.513 -3.500 10.87172 17.88243 -5.79059
 3.42 5.40 -3.479 -3.480 -3.477 -3.468 -3.455 11.00106 18.08661 -5.58641
 3.42 5.60 -3.430 -3.432 -3.428 -3.420 -3.407 11.12696 18.28996 -5.38302
 3.42 5.80 -3.379 -3.381 -3.377 -3.369 -3.357 11.25102 18.49274 -5.18021
 3.42 6.00 -3.324 -3.326 -3.323 -3.315 -3.304 11.37383 18.69496 -4.97798
 3.42 6.25 -3.250 -3.251 -3.248 -3.242 -3.231 11.52636 18.94706 -4.72607
 3.42 6.50 -3.170 -3.171 -3.168 -3.162 -3.152 11.67806 19.19866 -4.47457
 3.42 6.75 -3.085 -3.086 -3.083 -3.077 -3.069 11.82942 19.44988 -4.22326
 3.42 7.00 -2.997 -2.997 -2.995 -2.990 -2.982 11.97987 19.70079 -3.97224
 3.42 7.25 -2.907 -2.907 -2.905 -2.900 -2.893 12.12819 19.95145 -3.72165
 3.42 7.50 -2.817 -2.817 -2.815 -2.811 -2.804 12.27416 20.20194 -3.47121
 3.42 7.75 -2.728 -2.728 -2.726 -2.722 -2.716 12.41657 20.45234 -3.22086
 3.42 8.00 -2.640 -2.641 -2.639 -2.636 -2.631 12.55582 20.70260 -2.97062
 3.44-2.00 -4.752 -4.756 -4.745 -4.726 -4.702  5.43152 10.41946-13.25368
 3.44-1.50 -4.790 -4.794 -4.783 -4.762 -4.736  5.87373 10.91939-12.75375
 3.44-1.00 -4.840 -4.845 -4.832 -4.809 -4.781  6.28937 11.41946-12.25368
 3.44-0.50 -4.895 -4.901 -4.887 -4.862 -4.830  6.67468 11.91944-11.75375
 3.44 0.00 -4.943 -4.950 -4.933 -4.905 -4.870  7.02979 12.41946-11.25360
 3.44 0.50 -4.959 -4.967 -4.949 -4.918 -4.879  7.36286 12.91965-10.75350
 3.44 1.00 -4.918 -4.926 -4.907 -4.875 -4.832  7.68878 13.42012-10.25298
 3.44 1.25 -4.869 -4.877 -4.858 -4.825 -4.782  7.85497 13.67072-10.00234
 3.44 1.50 -4.800 -4.809 -4.790 -4.757 -4.713  8.02490 13.92174 -9.75129
 3.44 1.75 -4.710 -4.718 -4.700 -4.668 -4.624  8.20308 14.17361 -9.49949
 3.44 2.00 -4.602 -4.610 -4.592 -4.561 -4.519  8.38899 14.42667 -9.24657
 3.44 2.25 -4.477 -4.484 -4.468 -4.438 -4.398  8.58463 14.68191 -8.99137
 3.44 2.50 -4.341 -4.347 -4.332 -4.304 -4.267  8.78760 14.93997 -8.73330
 3.44 2.75 -4.198 -4.205 -4.191 -4.165 -4.131  8.99771 15.20304 -8.47015
 3.44 3.00 -4.056 -4.062 -4.049 -4.027 -3.996  9.21165 15.47056 -8.20253
 3.44 3.20 -3.948 -3.953 -3.942 -3.921 -3.893  9.38567 15.68934 -7.98365
 3.44 3.40 -3.845 -3.849 -3.839 -3.821 -3.795  9.55969 15.90920 -7.76377
 3.44 3.60 -3.748 -3.752 -3.743 -3.727 -3.705  9.73324 16.13015 -7.54287
 3.44 3.80 -3.658 -3.662 -3.654 -3.640 -3.620  9.90528 16.35140 -7.32172
 3.44 4.00 -3.575 -3.577 -3.572 -3.559 -3.542 10.07591 16.57264 -7.10056
 3.44 4.20 -3.500 -3.502 -3.496 -3.486 -3.470 10.24301 16.79092 -6.88232
 3.44 4.40 -3.429 -3.431 -3.427 -3.417 -3.402 10.40670 17.00721 -6.66603
 3.44 4.60 -3.365 -3.367 -3.363 -3.354 -3.340 10.56668 17.22117 -6.45204
 3.44 4.80 -3.307 -3.309 -3.305 -3.297 -3.284 10.72194 17.43284 -6.24033
 3.44 5.00 -3.253 -3.255 -3.251 -3.243 -3.231 10.87245 17.64256 -6.03059
 3.44 5.20 -3.204 -3.206 -3.202 -3.194 -3.183 11.01660 17.85052 -5.82270
 3.44 5.40 -3.156 -3.158 -3.154 -3.147 -3.136 11.15578 18.05709 -5.61618
 3.44 5.60 -3.110 -3.111 -3.108 -3.101 -3.090 11.28961 18.26232 -5.41096
 3.44 5.80 -3.062 -3.064 -3.061 -3.054 -3.044 11.41940 18.46657 -5.20666
 3.44 6.00 -3.014 -3.015 -3.012 -3.006 -2.996 11.54593 18.66997 -5.00323
 3.44 6.25 -2.949 -2.950 -2.948 -2.942 -2.933 11.70032 18.92328 -4.74995
 3.44 6.50 -2.880 -2.881 -2.878 -2.873 -2.864 11.85254 19.17580 -4.49744
 3.44 6.75 -2.805 -2.806 -2.804 -2.798 -2.791 12.00352 19.42772 -4.24546
 3.44 7.00 -2.725 -2.726 -2.724 -2.719 -2.712 12.15321 19.67916 -3.99396
 3.44 7.25 -2.642 -2.643 -2.640 -2.636 -2.630 12.30201 19.93020 -3.74294
 3.44 7.50 -2.557 -2.558 -2.556 -2.551 -2.545 12.44932 20.18099 -3.49215
 3.44 7.75 -2.471 -2.472 -2.470 -2.466 -2.461 12.59414 20.43162 -3.24148
 3.44 8.00 -2.386 -2.387 -2.386 -2.382 -2.377 12.73680 20.68206 -2.99097
 3.46-2.00 -4.688 -4.692 -4.682 -4.665 -4.643  5.45225 10.39933-13.27376
 3.46-1.50 -4.703 -4.707 -4.696 -4.677 -4.653  5.92845 10.89938-12.77366
 3.46-1.00 -4.729 -4.734 -4.722 -4.701 -4.674  6.38130 11.39950-12.27376
 3.46-0.50 -4.762 -4.767 -4.754 -4.730 -4.699  6.80740 11.89938-11.77366
 3.46 0.00 -4.789 -4.796 -4.780 -4.754 -4.720  7.20412 12.39950-11.27368
 3.46 0.50 -4.794 -4.802 -4.784 -4.755 -4.716  7.56914 12.89949-10.77366
