
 ROSSELAND MASS ABSORPTION COEFFICENTS
 logT logP  0km/s  1km/s  2km/s  4km/s  8km/s  log Ne   log Na  log rho IPloCM-1
 3.32-2.00 -6.198 -6.192 -6.182 -6.162 -6.136  3.21139 10.54033-13.13395
 3.32-1.50 -6.240 -6.235 -6.225 -6.205 -6.179  3.56891 11.04139-12.63302
 3.32-1.00 -6.258 -6.253 -6.242 -6.223 -6.197  3.96858 11.54419-12.13018
 3.32-0.50 -6.247 -6.242 -6.231 -6.211 -6.184  4.41263 12.05231-11.62197
 3.32 0.00 -6.214 -6.207 -6.197 -6.175 -6.147  4.88360 12.57380-11.10056
 3.32 0.50 -6.170 -6.164 -6.153 -6.132 -6.104  5.35755 13.11494-10.55956
 3.32 1.00 -6.130 -6.125 -6.115 -6.095 -6.069  5.81671 13.66829-10.00599
 3.32 1.25 -6.110 -6.105 -6.096 -6.078 -6.053  6.03795 13.94330 -9.73093
 3.32 1.50 -6.091 -6.086 -6.077 -6.060 -6.038  6.25551 14.21643 -9.45780
 3.32 1.75 -6.070 -6.065 -6.057 -6.042 -6.021  6.46947 14.48542 -9.18895
 3.32 2.00 -6.047 -6.043 -6.036 -6.021 -6.002  6.68278 14.75113 -8.92336
 3.32 2.25 -6.022 -6.019 -6.011 -5.998 -5.981  6.89601 15.01336 -8.66105
 3.32 2.50 -5.995 -5.992 -5.986 -5.974 -5.957  7.10857 15.27300 -8.40132
 3.32 2.75 -5.967 -5.963 -5.958 -5.947 -5.931  7.31675 15.53044 -8.14383
 3.32 3.00 -5.936 -5.934 -5.929 -5.919 -5.905  7.51970 15.78618 -7.88807
 3.32 3.20 -5.910 -5.908 -5.903 -5.894 -5.882  7.67384 15.98972 -7.68454
 3.32 3.40 -5.882 -5.880 -5.876 -5.868 -5.856  7.82213 16.19260 -7.48168
 3.32 3.60 -5.853 -5.851 -5.848 -5.841 -5.829  7.96384 16.39489 -7.27943
 3.32 3.80 -5.822 -5.820 -5.817 -5.811 -5.801  8.10016 16.59677 -7.07760
 3.32 4.00 -5.787 -5.786 -5.783 -5.778 -5.769  8.23223 16.79824 -6.87615
 3.32 4.20 -5.754 -5.753 -5.751 -5.745 -5.736  8.35989 16.99933 -6.67499
 3.32 4.40 -5.718 -5.716 -5.714 -5.708 -5.699  8.48654 17.20022 -6.47405
 3.32 4.60 -5.677 -5.675 -5.673 -5.667 -5.658  8.61221 17.40096 -6.27331
 3.32 4.80 -5.631 -5.630 -5.628 -5.622 -5.613  8.73765 17.60159 -6.07271
 3.32 5.00 -5.580 -5.579 -5.577 -5.571 -5.562  8.86308 17.80209 -5.87225
 3.32 5.20 -5.524 -5.523 -5.520 -5.515 -5.506  8.99070 18.00238 -5.67192
 3.32 5.40 -5.460 -5.459 -5.457 -5.452 -5.443  9.11954 18.20264 -5.47163
 3.32 5.60 -5.388 -5.387 -5.385 -5.380 -5.371  9.25017 18.40289 -5.27138
 3.32 5.80 -5.305 -5.304 -5.302 -5.297 -5.288  9.38169 18.60312 -5.07115
 3.32 6.00 -5.206 -5.205 -5.203 -5.198 -5.190  9.51322 18.80332 -4.87096
 3.32 6.25 -5.053 -5.053 -5.051 -5.046 -5.039  9.67543 19.05350 -4.62087
 3.32 6.50 -4.854 -4.853 -4.851 -4.848 -4.842  9.83512 19.30363 -4.37080
 3.32 6.75 -4.589 -4.589 -4.587 -4.584 -4.580  9.98907 19.55368 -4.12071
 3.32 7.00 -4.402 -4.401 -4.400 -4.397 -4.393 10.13830 19.80373 -3.87063
 3.32 7.25 -4.288 -4.287 -4.286 -4.284 -4.281 10.28239 20.05379 -3.62060
 3.32 7.50 -4.172 -4.171 -4.170 -4.168 -4.164 10.42243 20.30384 -3.37059
 3.32 7.75 -4.053 -4.053 -4.052 -4.050 -4.047 10.55918 20.55387 -3.12060
 3.32 8.00 -3.933 -3.933 -3.932 -3.931 -3.928 10.69241 20.80387 -2.87063
 3.34-2.00 -6.036 -6.030 -6.019 -5.998 -5.971  3.49038 10.51996-13.15434
 3.34-1.50 -6.094 -6.088 -6.077 -6.056 -6.028  3.82066 11.02036-12.65404
 3.34-1.00 -6.137 -6.131 -6.120 -6.099 -6.071  4.15806 11.52114-12.15317
 3.34-0.50 -6.150 -6.144 -6.132 -6.111 -6.082  4.52388 12.02366-11.65053
 3.34 0.00 -6.121 -6.114 -6.102 -6.080 -6.050  4.93571 12.53199-11.14237
 3.34 0.50 -6.062 -6.056 -6.044 -6.022 -5.992  5.39182 13.05269-10.62160
 3.34 1.00 -6.001 -5.995 -5.985 -5.965 -5.939  5.86811 13.59329-10.08097
 3.34 1.25 -5.976 -5.970 -5.960 -5.942 -5.918  6.10303 13.87002 -9.80433
 3.34 1.50 -5.953 -5.949 -5.939 -5.922 -5.899  6.33445 14.14675 -9.52768
 3.34 1.75 -5.932 -5.928 -5.919 -5.903 -5.883  6.55852 14.42190 -9.25256
 3.34 2.00 -5.911 -5.907 -5.899 -5.884 -5.864  6.77743 14.69522 -8.97922
 3.34 2.25 -5.888 -5.884 -5.877 -5.862 -5.844  6.99073 14.96434 -8.71007
 3.34 2.50 -5.863 -5.859 -5.852 -5.839 -5.820  7.20194 15.23019 -8.44418
 3.34 2.75 -5.832 -5.829 -5.823 -5.810 -5.793  7.41237 15.49267 -8.18173
 3.34 3.00 -5.799 -5.796 -5.790 -5.779 -5.763  7.62107 15.75251 -7.92191
 3.34 3.20 -5.770 -5.767 -5.762 -5.751 -5.737  7.78663 15.95863 -7.71578
 3.34 3.40 -5.738 -5.736 -5.732 -5.722 -5.708  7.94986 16.16366 -7.51073
 3.34 3.60 -5.706 -5.704 -5.699 -5.691 -5.679  8.10910 16.36765 -7.30667
 3.34 3.80 -5.672 -5.670 -5.666 -5.659 -5.648  8.26216 16.57094 -7.10332
 3.34 4.00 -5.636 -5.635 -5.632 -5.626 -5.616  8.40993 16.77357 -6.90067
 3.34 4.20 -5.605 -5.604 -5.601 -5.595 -5.586  8.55059 16.97567 -6.69863
 3.34 4.40 -5.572 -5.571 -5.568 -5.563 -5.553  8.68666 17.17737 -6.49699
 3.34 4.60 -5.538 -5.537 -5.535 -5.528 -5.519  8.81776 17.37867 -6.29570
 3.34 4.80 -5.502 -5.501 -5.498 -5.493 -5.483  8.94594 17.57972 -6.09464
 3.34 5.00 -5.464 -5.463 -5.460 -5.454 -5.445  9.07225 17.78053 -5.89381
 3.34 5.20 -5.423 -5.422 -5.420 -5.414 -5.404  9.19688 17.98119 -5.69319
 3.34 5.40 -5.379 -5.378 -5.375 -5.370 -5.361  9.32150 18.18172 -5.49267
 3.34 5.60 -5.331 -5.330 -5.328 -5.322 -5.313  9.44660 18.38215 -5.29220
 3.34 5.80 -5.280 -5.279 -5.277 -5.271 -5.262  9.57277 18.58250 -5.09178
 3.34 6.00 -5.224 -5.223 -5.221 -5.216 -5.207  9.69975 18.78276 -4.89144
 3.34 6.25 -5.150 -5.149 -5.146 -5.141 -5.133  9.86068 19.03292 -4.64129
 3.34 6.50 -5.069 -5.068 -5.066 -5.062 -5.054 10.02160 19.28308 -4.39115
 3.34 6.75 -4.985 -4.984 -4.982 -4.978 -4.970 10.18092 19.53328 -4.14096
 3.34 7.00 -4.898 -4.897 -4.895 -4.891 -4.885 10.33826 19.78348 -3.89076
 3.34 7.25 -4.810 -4.809 -4.807 -4.803 -4.798 10.49052 20.03350 -3.64073
 3.34 7.50 -4.721 -4.721 -4.719 -4.716 -4.710 10.63849 20.28353 -3.39073
 3.34 7.75 -4.634 -4.633 -4.632 -4.629 -4.624 10.78187 20.53359 -3.14073
 3.34 8.00 -4.548 -4.547 -4.546 -4.542 -4.538 10.92075 20.78369 -2.89076
 3.36-2.00 -5.884 -5.877 -5.866 -5.845 -5.817  3.72965 10.49996-13.17444
 3.36-1.50 -5.937 -5.931 -5.919 -5.897 -5.869  4.08529 10.99996-12.67428
 3.36-1.00 -5.987 -5.981 -5.969 -5.947 -5.918  4.42062 11.50024-12.17406
 3.36-0.50 -6.019 -6.013 -6.000 -5.978 -5.948  4.75051 12.00130-11.67325
 3.36 0.00 -6.014 -6.007 -5.995 -5.971 -5.941  5.09447 12.50406-11.17031
 3.36 0.50 -5.968 -5.961 -5.949 -5.926 -5.896  5.47538 13.01242-10.66214
 3.36 1.00 -5.898 -5.893 -5.882 -5.862 -5.835  5.90741 13.53339-10.14086
 3.36 1.25 -5.864 -5.859 -5.849 -5.830 -5.806  6.14245 13.80201 -9.87234
 3.36 1.50 -5.832 -5.827 -5.818 -5.800 -5.777  6.37749 14.07445 -9.59998
 3.36 1.75 -5.803 -5.797 -5.789 -5.772 -5.751  6.61253 14.35116 -9.32323
 3.36 2.00 -5.775 -5.769 -5.762 -5.745 -5.725  6.84757 14.62788 -9.04648
 3.36 2.25 -5.746 -5.742 -5.734 -5.719 -5.698  7.07367 14.90292 -8.77137
 3.36 2.50 -5.717 -5.713 -5.705 -5.690 -5.670  7.29402 15.17609 -8.49812
 3.36 2.75 -5.684 -5.681 -5.674 -5.660 -5.641  7.50785 15.44513 -8.22909
 3.36 3.00 -5.649 -5.646 -5.639 -5.626 -5.609  7.71809 15.71088 -7.96337
 3.36 3.20 -5.617 -5.614 -5.608 -5.597 -5.580  7.88459 15.92086 -7.75341
 3.36 3.40 -5.583 -5.581 -5.576 -5.565 -5.550  8.04964 16.12919 -7.54508
 3.36 3.60 -5.547 -5.545 -5.540 -5.531 -5.517  8.21370 16.33597 -7.33829
 3.36 3.80 -5.509 -5.506 -5.502 -5.495 -5.482  8.37641 16.54158 -7.13265
 3.36 4.00 -5.468 -5.467 -5.464 -5.458 -5.447  8.53719 16.74609 -6.92812
 3.36 4.20 -5.433 -5.431 -5.428 -5.422 -5.411  8.69296 16.94956 -6.72467
 3.36 4.40 -5.396 -5.394 -5.392 -5.386 -5.375  8.84410 17.15240 -6.52185
 3.36 4.60 -5.358 -5.357 -5.355 -5.349 -5.339  8.98947 17.35467 -6.31957
 3.36 4.80 -5.321 -5.320 -5.317 -5.312 -5.301  9.12902 17.55657 -6.11766
 3.36 5.00 -5.282 -5.280 -5.278 -5.272 -5.262  9.26387 17.75808 -5.91614
 3.36 5.20 -5.240 -5.239 -5.237 -5.231 -5.222  9.39380 17.95923 -5.71504
 3.36 5.40 -5.197 -5.195 -5.193 -5.187 -5.178  9.52141 18.16016 -5.51413
 3.36 5.60 -5.149 -5.148 -5.146 -5.140 -5.131  9.64638 18.36091 -5.31337
 3.36 5.80 -5.098 -5.097 -5.094 -5.089 -5.081  9.77049 18.56153 -5.11272
 3.36 6.00 -5.042 -5.041 -5.039 -5.033 -5.025  9.89459 18.76200 -4.91222
 3.36 6.25 -4.966 -4.965 -4.963 -4.957 -4.950 10.05017 19.01237 -4.66189
 3.36 6.50 -4.882 -4.881 -4.879 -4.874 -4.868 10.20629 19.26269 -4.41162
 3.36 6.75 -4.792 -4.791 -4.789 -4.785 -4.779 10.36423 19.51300 -4.16137
 3.36 7.00 -4.698 -4.697 -4.696 -4.691 -4.685 10.52218 19.76328 -3.91116
 3.36 7.25 -4.601 -4.600 -4.598 -4.595 -4.590 10.67850 20.01334 -3.66097
 3.36 7.50 -4.504 -4.503 -4.502 -4.498 -4.494 10.83289 20.26340 -3.41083
 3.36 7.75 -4.409 -4.408 -4.407 -4.404 -4.400 10.98267 20.51351 -3.16078
 3.36 8.00 -4.316 -4.315 -4.313 -4.311 -4.307 11.12872 20.76365 -2.91080
 3.38-2.00 -5.759 -5.753 -5.742 -5.720 -5.692  3.88666 10.47986-13.19443
 3.38-1.50 -5.798 -5.792 -5.780 -5.758 -5.730  4.28937 10.97987-12.69443
 3.38-1.00 -5.841 -5.834 -5.822 -5.800 -5.770  4.66162 11.48001-12.19430
 3.38-0.50 -5.876 -5.869 -5.856 -5.833 -5.803  5.00732 11.98028-11.69400
 3.38 0.00 -5.885 -5.878 -5.865 -5.842 -5.812  5.33826 12.48130-11.19301
 3.38 0.50 -5.859 -5.853 -5.841 -5.818 -5.788  5.67117 12.98430-10.69016
 3.38 1.00 -5.803 -5.797 -5.786 -5.766 -5.739  6.02857 13.49318-10.18118
 3.38 1.25 -5.768 -5.762 -5.752 -5.733 -5.709  6.22528 13.75227 -9.92206
 3.38 1.50 -5.731 -5.725 -5.715 -5.698 -5.674  6.43425 14.01536 -9.65896
 3.38 1.75 -5.691 -5.686 -5.676 -5.659 -5.637  6.65941 14.28468 -9.38966
 3.38 2.00 -5.651 -5.646 -5.637 -5.620 -5.599  6.88975 14.55763 -9.11674
 3.38 2.25 -5.611 -5.606 -5.597 -5.581 -5.560  7.12403 14.83445 -8.83997
 3.38 2.50 -5.571 -5.566 -5.558 -5.542 -5.522  7.35832 15.11126 -8.56320
 3.38 2.75 -5.530 -5.526 -5.518 -5.503 -5.484  7.58515 15.38608 -8.28835
 3.38 3.00 -5.489 -5.485 -5.478 -5.465 -5.445  7.80645 15.65877 -8.01556
 3.38 3.20 -5.453 -5.450 -5.444 -5.432 -5.414  7.97823 15.87386 -7.80045
 3.38 3.40 -5.418 -5.415 -5.409 -5.398 -5.382  8.14710 16.08685 -7.58746
 3.38 3.60 -5.379 -5.377 -5.372 -5.362 -5.348  8.31321 16.29765 -7.37672
 3.38 3.80 -5.338 -5.336 -5.333 -5.324 -5.311  8.47742 16.50660 -7.16785
 3.38 4.00 -5.296 -5.295 -5.291 -5.284 -5.272  8.63988 16.71391 -6.96059
 3.38 4.20 -5.257 -5.255 -5.252 -5.245 -5.234  8.80165 16.91977 -6.75463
 3.38 4.40 -5.215 -5.213 -5.210 -5.204 -5.193  8.96144 17.12458 -6.54974
 3.38 4.60 -5.172 -5.170 -5.167 -5.161 -5.152  9.11859 17.32842 -6.34594
 3.38 4.80 -5.128 -5.127 -5.124 -5.118 -5.108  9.27148 17.53157 -6.14289
 3.38 5.00 -5.083 -5.082 -5.079 -5.073 -5.064  9.42029 17.73408 -5.94044
 3.38 5.20 -5.037 -5.036 -5.033 -5.028 -5.018  9.56258 17.93605 -5.73840
 3.38 5.40 -4.989 -4.988 -4.986 -4.980 -4.971  9.70023 18.13764 -5.53673
 3.38 5.60 -4.939 -4.938 -4.935 -4.930 -4.921  9.83278 18.33888 -5.33547
 3.38 5.80 -4.885 -4.884 -4.882 -4.877 -4.868  9.96177 18.53988 -5.13447
 3.38 6.00 -4.828 -4.827 -4.825 -4.819 -4.812 10.08814 18.74068 -4.93367
 3.38 6.25 -4.750 -4.749 -4.747 -4.743 -4.735 10.24278 18.99146 -4.68288
 3.38 6.50 -4.666 -4.665 -4.663 -4.659 -4.652 10.39707 19.24205 -4.43227
 3.38 6.75 -4.576 -4.575 -4.573 -4.569 -4.563 10.55117 19.49247 -4.18179
 3.38 7.00 -4.480 -4.479 -4.478 -4.474 -4.468 10.70527 19.74280 -3.93144
 3.38 7.25 -4.381 -4.380 -4.378 -4.375 -4.370 10.86031 19.99308 -3.68127
 3.38 7.50 -4.279 -4.279 -4.277 -4.274 -4.269 11.01536 20.24329 -3.43109
 3.38 7.75 -4.179 -4.179 -4.177 -4.174 -4.170 11.16818 20.49343 -3.18090
 3.38 8.00 -4.081 -4.080 -4.079 -4.077 -4.073 11.31952 20.74351 -2.93070
 3.40-2.00 -5.665 -5.658 -5.646 -5.625 -5.598  3.97021 10.45984-13.21446
 3.40-1.50 -5.688 -5.681 -5.670 -5.647 -5.619  4.41280 10.95985-12.71444
 3.40-1.00 -5.716 -5.709 -5.697 -5.674 -5.646  4.83085 11.46000-12.21439
 3.40-0.50 -5.742 -5.736 -5.723 -5.700 -5.671  5.21958 11.96000-11.71444
 3.40 0.00 -5.754 -5.747 -5.735 -5.711 -5.682  5.57864 12.46045-11.21396
 3.40 0.50 -5.739 -5.732 -5.720 -5.697 -5.669  5.91551 12.96147-10.71287
 3.40 1.00 -5.695 -5.689 -5.678 -5.657 -5.631  6.24502 13.46494-10.20943
 3.40 1.25 -5.664 -5.658 -5.647 -5.628 -5.603  6.41409 13.71868 -9.95563
 3.40 1.50 -5.628 -5.622 -5.611 -5.593 -5.569  6.58827 13.97460 -9.69962
 3.40 1.75 -5.586 -5.580 -5.570 -5.553 -5.529  6.77405 14.23463 -9.43964
 3.40 2.00 -5.540 -5.535 -5.525 -5.508 -5.486  6.97123 14.49886 -9.17549
 3.40 2.25 -5.491 -5.486 -5.476 -5.460 -5.437  7.18525 14.76929 -8.90502
 3.40 2.50 -5.439 -5.434 -5.426 -5.410 -5.388  7.40773 15.04297 -8.63134
 3.40 2.75 -5.386 -5.382 -5.374 -5.359 -5.338  7.63833 15.31984 -8.35452
 3.40 3.00 -5.332 -5.329 -5.322 -5.308 -5.289  7.86894 15.59671 -8.07769
 3.40 3.20 -5.289 -5.286 -5.280 -5.267 -5.249  8.04967 15.81640 -7.85800
 3.40 3.40 -5.246 -5.243 -5.238 -5.227 -5.211  8.22751 16.03453 -7.63985
 3.40 3.60 -5.202 -5.200 -5.196 -5.185 -5.171  8.40152 16.25051 -7.42388
 3.40 3.80 -5.158 -5.156 -5.152 -5.143 -5.130  8.57152 16.46395 -7.21048
 3.40 4.00 -5.112 -5.110 -5.107 -5.099 -5.088  8.73838 16.67532 -6.99913
 3.40 4.20 -5.068 -5.066 -5.063 -5.057 -5.046  8.90241 16.88462 -6.78981
 3.40 4.40 -5.022 -5.021 -5.017 -5.011 -5.001  9.06437 17.09235 -6.58204
 3.40 4.60 -4.975 -4.973 -4.970 -4.964 -4.954  9.22481 17.29854 -6.37578
 3.40 4.80 -4.925 -4.923 -4.921 -4.915 -4.906  9.38365 17.50360 -6.17066
 3.40 5.00 -4.873 -4.872 -4.869 -4.864 -4.854  9.54033 17.70766 -5.96658
 3.40 5.20 -4.820 -4.819 -4.816 -4.811 -4.802  9.69379 17.91086 -5.76342
 3.40 5.40 -4.765 -4.764 -4.761 -4.756 -4.748  9.84349 18.11349 -5.56085
 3.40 5.60 -4.708 -4.707 -4.704 -4.700 -4.691  9.98841 18.31558 -5.35885
 3.40 5.80 -4.649 -4.648 -4.646 -4.641 -4.634 10.12802 18.51730 -5.15719
 3.40 6.00 -4.588 -4.587 -4.585 -4.580 -4.573 10.26316 18.71867 -4.95585
 3.40 6.25 -4.508 -4.507 -4.505 -4.501 -4.494 10.42554 18.96994 -4.70448
 3.40 6.50 -4.423 -4.422 -4.420 -4.417 -4.411 10.58354 19.22089 -4.45346
 3.40 6.75 -4.334 -4.334 -4.332 -4.328 -4.322 10.73770 19.47159 -4.20284
 3.40 7.00 -4.241 -4.240 -4.239 -4.236 -4.230 10.89070 19.72214 -3.95234
 3.40 7.25 -4.144 -4.143 -4.142 -4.139 -4.134 11.04292 19.97262 -3.70187
 3.40 7.50 -4.044 -4.043 -4.042 -4.040 -4.036 11.19507 20.22298 -3.45149
 3.40 7.75 -3.944 -3.944 -3.943 -3.940 -3.936 11.34719 20.47320 -3.20126
 3.40 8.00 -3.845 -3.844 -3.843 -3.841 -3.837 11.49927 20.72329 -2.95117
 3.42-2.00 -5.597 -5.590 -5.579 -5.557 -5.530  3.99401 10.43996-13.23441
 3.42-1.50 -5.605 -5.598 -5.586 -5.564 -5.537  4.47159 10.93992-12.73448
 3.42-1.00 -5.618 -5.611 -5.599 -5.577 -5.549  4.92722 11.43996-12.23441
 3.42-0.50 -5.631 -5.625 -5.613 -5.590 -5.560  5.35774 11.93997-11.73448
 3.42 0.00 -5.636 -5.629 -5.616 -5.593 -5.564  5.76125 12.44012-11.23418
 3.42 0.50 -5.620 -5.613 -5.601 -5.579 -5.551  6.13386 12.94052-10.73377
 3.42 1.00 -5.578 -5.572 -5.561 -5.540 -5.514  6.47958 13.44185-10.23247
 3.42 1.25 -5.547 -5.541 -5.530 -5.511 -5.485  6.64521 13.69333 -9.98102
 3.42 1.50 -5.511 -5.505 -5.495 -5.475 -5.451  6.81084 13.94576 -9.72862
 3.42 1.75 -5.468 -5.462 -5.453 -5.434 -5.410  6.97788 14.20019 -9.47420
 3.42 2.00 -5.421 -5.416 -5.406 -5.388 -5.364  7.14706 14.45713 -9.21724
 3.42 2.25 -5.368 -5.363 -5.354 -5.337 -5.314  7.32582 14.71841 -8.95598
 3.42 2.50 -5.312 -5.307 -5.298 -5.282 -5.260  7.51415 14.98403 -8.69037
 3.42 2.75 -5.250 -5.246 -5.238 -5.223 -5.203  7.71805 15.25601 -8.41829
 3.42 3.00 -5.187 -5.183 -5.176 -5.163 -5.144  7.93161 15.53058 -8.14369
 3.42 3.20 -5.134 -5.131 -5.124 -5.112 -5.095  8.11112 15.75204 -7.92231
 3.42 3.40 -5.080 -5.078 -5.072 -5.061 -5.045  8.29064 15.97349 -7.70093
 3.42 3.60 -5.027 -5.024 -5.019 -5.010 -4.996  8.46953 16.19399 -7.48046
 3.42 3.80 -4.973 -4.970 -4.966 -4.958 -4.946  8.64647 16.41218 -7.26223
 3.42 4.00 -4.918 -4.916 -4.913 -4.906 -4.895  8.82164 16.62859 -7.04576
 3.42 4.20 -4.866 -4.865 -4.862 -4.855 -4.845  8.99207 16.84226 -6.83210
 3.42 4.40 -4.813 -4.812 -4.810 -4.803 -4.794  9.15948 17.05390 -6.62047
 3.42 4.60 -4.760 -4.759 -4.756 -4.750 -4.742  9.32382 17.26347 -6.41090
 3.42 4.80 -4.706 -4.705 -4.702 -4.696 -4.688  9.48563 17.47137 -6.20298
 3.42 5.00 -4.648 -4.647 -4.645 -4.640 -4.631  9.64513 17.67779 -5.99654
 3.42 5.20 -4.590 -4.589 -4.587 -4.582 -4.574  9.80319 17.88294 -5.79143
 3.42 5.40 -4.529 -4.528 -4.526 -4.522 -4.514  9.95888 18.08717 -5.58722
 3.42 5.60 -4.467 -4.466 -4.464 -4.459 -4.452 10.11204 18.29051 -5.38384
 3.42 5.80 -4.403 -4.402 -4.400 -4.395 -4.388 10.26177 18.49324 -5.18103
 3.42 6.00 -4.337 -4.336 -4.334 -4.329 -4.323 10.40790 18.69539 -4.97881
 3.42 6.25 -4.252 -4.251 -4.249 -4.246 -4.239 10.58308 18.94738 -4.72677
 3.42 6.50 -4.165 -4.164 -4.163 -4.160 -4.154 10.75159 19.19893 -4.47522
 3.42 6.75 -4.077 -4.076 -4.074 -4.071 -4.066 10.91304 19.45024 -4.22398
 3.42 7.00 -3.985 -3.984 -3.983 -3.980 -3.976 11.07004 19.70122 -3.97306
 3.42 7.25 -3.892 -3.891 -3.890 -3.887 -3.883 11.22324 19.95176 -3.72243
 3.42 7.50 -3.797 -3.796 -3.795 -3.793 -3.789 11.37475 20.20222 -3.47198
 3.42 7.75 -3.701 -3.700 -3.699 -3.696 -3.693 11.52541 20.45265 -3.22164
 3.42 8.00 -3.605 -3.604 -3.603 -3.600 -3.597 11.67495 20.70303 -2.97143
 3.44-2.00 -5.552 -5.546 -5.535 -5.514 -5.488  3.98958 10.41996-13.25438
 3.44-1.50 -5.547 -5.541 -5.529 -5.507 -5.479  4.48073 10.91991-12.75449
 3.44-1.00 -5.546 -5.539 -5.527 -5.504 -5.476  4.96530 11.41996-12.25438
 3.44-0.50 -5.545 -5.538 -5.526 -5.503 -5.475  5.43217 11.91991-11.75449
 3.44 0.00 -5.538 -5.531 -5.518 -5.496 -5.467  5.87431 12.41996-11.25430
 3.44 0.50 -5.513 -5.507 -5.495 -5.473 -5.445  6.29003 12.92012-10.75424
 3.44 1.00 -5.465 -5.459 -5.447 -5.426 -5.401  6.67559 13.42062-10.25368
 3.44 1.25 -5.430 -5.424 -5.413 -5.393 -5.367  6.85645 13.67120-10.00305
 3.44 1.50 -5.390 -5.384 -5.373 -5.353 -5.329  7.03141 13.92221 -9.75203
 3.44 1.75 -5.343 -5.337 -5.326 -5.308 -5.284  7.20002 14.17408 -9.50022
 3.44 2.00 -5.291 -5.285 -5.275 -5.257 -5.234  7.36773 14.42716 -9.24726
 3.44 2.25 -5.233 -5.228 -5.219 -5.202 -5.180  7.53491 14.68240 -8.99196
 3.44 2.50 -5.172 -5.167 -5.159 -5.143 -5.122  7.70209 14.94047 -8.73377
 3.44 2.75 -5.105 -5.102 -5.094 -5.080 -5.060  7.87706 15.20356 -8.47075
 3.44 3.00 -5.036 -5.032 -5.025 -5.012 -4.995  8.05956 15.47114 -8.20329
 3.44 3.20 -4.976 -4.973 -4.967 -4.956 -4.940  8.21530 15.69014 -7.98444
 3.44 3.40 -4.915 -4.912 -4.907 -4.897 -4.882  8.37704 15.91006 -7.76456
 3.44 3.60 -4.852 -4.850 -4.845 -4.836 -4.823  8.54688 16.13089 -7.54364
 3.44 3.80 -4.787 -4.785 -4.782 -4.774 -4.762  8.72035 16.35194 -7.32246
 3.44 4.00 -4.722 -4.720 -4.717 -4.711 -4.700  8.89382 16.57299 -7.10128
 3.44 4.20 -4.660 -4.658 -4.655 -4.649 -4.639  9.06708 16.79122 -6.88306
 3.44 4.40 -4.597 -4.596 -4.593 -4.587 -4.578  9.24001 17.00752 -6.66680
 3.44 4.60 -4.534 -4.533 -4.530 -4.525 -4.517  9.41083 17.22155 -6.45281
 3.44 4.80 -4.472 -4.471 -4.469 -4.464 -4.456  9.57784 17.43328 -6.24107
 3.44 5.00 -4.410 -4.409 -4.407 -4.402 -4.395  9.74218 17.64306 -6.03128
 3.44 5.20 -4.347 -4.347 -4.345 -4.340 -4.332  9.90369 17.85092 -5.82341
 3.44 5.40 -4.284 -4.283 -4.281 -4.277 -4.269 10.06280 18.05742 -5.61689
 3.44 5.60 -4.218 -4.217 -4.215 -4.211 -4.204 10.21983 18.26266 -5.41166
 3.44 5.80 -4.151 -4.150 -4.148 -4.144 -4.138 10.37468 18.46699 -5.20736
 3.44 6.00 -4.081 -4.081 -4.079 -4.075 -4.069 10.52699 18.67043 -5.00393
 3.44 6.25 -3.993 -3.993 -3.991 -3.988 -3.982 10.71310 18.92364 -4.75062
 3.44 6.50 -3.904 -3.904 -3.902 -3.899 -3.893 10.89365 19.17609 -4.49812
 3.44 6.75 -3.814 -3.813 -3.812 -3.809 -3.804 11.06666 19.42805 -4.24624
 3.44 7.00 -3.723 -3.723 -3.721 -3.718 -3.714 11.23325 19.67952 -3.99482
 3.44 7.25 -3.632 -3.632 -3.631 -3.628 -3.624 11.39306 19.93049 -3.74377
 3.44 7.50 -3.541 -3.540 -3.539 -3.536 -3.533 11.54839 20.18127 -3.49295
 3.44 7.75 -3.449 -3.448 -3.447 -3.445 -3.442 11.70067 20.43196 -3.24230
 3.44 8.00 -3.357 -3.357 -3.356 -3.354 -3.350 11.84942 20.68251 -2.99183
 3.46-2.00 -5.505 -5.500 -5.491 -5.474 -5.451  4.02938 10.39985-13.27442
 3.46-1.50 -5.504 -5.499 -5.489 -5.468 -5.443  4.48813 10.89988-12.77443
 3.46-1.00 -5.496 -5.490 -5.478 -5.456 -5.429  4.96970 11.39985-12.27442
 3.46-0.50 -5.482 -5.476 -5.464 -5.442 -5.413  5.45515 11.89988-11.77443
 3.46 0.00 -5.462 -5.456 -5.443 -5.421 -5.393  5.92973 12.39985-11.27442
 3.46 0.50 -5.427 -5.420 -5.408 -5.386 -5.359  6.38202 12.89998-10.77443
