
 ROSSELAND MASS ABSORPTION COEFFICENTS
 logT logP  0km/s  1km/s  2km/s  4km/s  8km/s  log Ne   log Na  log rho IPloCM-1
 3.32-2.00 -5.517 -5.528 -5.513 -5.489 -5.459  4.40140 10.53995-13.13324
 3.32-1.50 -5.536 -5.547 -5.532 -5.506 -5.476  4.85400 11.04060-12.63246
 3.32-1.00 -5.560 -5.572 -5.556 -5.530 -5.499  5.29667 11.54370-12.12948
 3.32-0.50 -5.587 -5.599 -5.582 -5.555 -5.523  5.72198 12.05192-11.62124
 3.32 0.00 -5.603 -5.615 -5.599 -5.572 -5.540  6.14145 12.57334-11.09985
 3.32 0.50 -5.600 -5.613 -5.596 -5.568 -5.536  6.57264 13.11428-10.55878
 3.32 1.00 -5.576 -5.589 -5.572 -5.545 -5.513  7.02243 13.66792-10.00529
 3.32 1.25 -5.560 -5.573 -5.556 -5.528 -5.496  7.24529 13.94301 -9.73022
 3.32 1.50 -5.543 -5.555 -5.539 -5.512 -5.480  7.46509 14.21617 -9.45705
 3.32 1.75 -5.525 -5.536 -5.520 -5.494 -5.462  7.67015 14.48506 -9.18821
 3.32 2.00 -5.505 -5.516 -5.501 -5.476 -5.445  7.86386 14.75066 -8.92263
 3.32 2.25 -5.483 -5.493 -5.479 -5.455 -5.426  8.04404 15.01288 -8.66030
 3.32 2.50 -5.458 -5.468 -5.455 -5.433 -5.404  8.21564 15.27254 -8.40055
 3.32 2.75 -5.428 -5.438 -5.425 -5.404 -5.378  8.37942 15.53000 -8.14312
 3.32 3.00 -5.393 -5.401 -5.390 -5.372 -5.346  8.54033 15.78576 -7.88740
 3.32 3.20 -5.360 -5.367 -5.357 -5.340 -5.316  8.66730 15.98929 -7.68384
 3.32 3.40 -5.322 -5.329 -5.319 -5.303 -5.281  8.79427 16.19217 -7.48095
 3.32 3.60 -5.278 -5.284 -5.276 -5.260 -5.240  8.92195 16.39444 -7.27873
 3.32 3.80 -5.228 -5.234 -5.226 -5.212 -5.194  9.05111 16.59629 -7.07693
 3.32 4.00 -5.173 -5.178 -5.171 -5.159 -5.141  9.18127 16.79775 -6.87550
 3.32 4.20 -5.116 -5.121 -5.115 -5.103 -5.085  9.31330 16.99886 -6.67430
 3.32 4.40 -5.054 -5.059 -5.053 -5.041 -5.024  9.44533 17.19978 -6.47334
 3.32 4.60 -4.989 -4.994 -4.987 -4.976 -4.958  9.57677 17.40054 -6.27261
 3.32 4.80 -4.919 -4.924 -4.917 -4.906 -4.889  9.70636 17.60118 -6.07205
 3.32 5.00 -4.841 -4.846 -4.840 -4.828 -4.811  9.83430 17.80168 -5.87160
 3.32 5.20 -4.757 -4.762 -4.756 -4.744 -4.727  9.95821 18.00196 -5.67123
 3.32 5.40 -4.663 -4.667 -4.661 -4.650 -4.633 10.07904 18.20221 -5.47092
 3.32 5.60 -4.555 -4.559 -4.553 -4.543 -4.527 10.19649 18.40246 -5.27068
 3.32 5.80 -4.431 -4.435 -4.430 -4.420 -4.405 10.31092 18.60269 -5.07047
 3.32 6.00 -4.289 -4.293 -4.288 -4.278 -4.264 10.42275 18.80291 -4.87031
 3.32 6.25 -4.078 -4.081 -4.077 -4.069 -4.056 10.55941 19.05308 -4.62017
 3.32 6.50 -3.822 -3.825 -3.822 -3.815 -3.804 10.69338 19.30320 -4.37008
 3.32 6.75 -3.514 -3.516 -3.513 -3.507 -3.500 10.82513 19.55327 -4.12003
 3.32 7.00 -3.309 -3.311 -3.308 -3.304 -3.298 10.95521 19.80332 -3.86999
 3.32 7.25 -3.190 -3.192 -3.190 -3.186 -3.180 11.08396 20.05338 -3.61994
 3.32 7.50 -3.076 -3.078 -3.076 -3.073 -3.068 11.21165 20.30341 -3.36988
 3.32 7.75 -2.968 -2.969 -2.967 -2.964 -2.960 11.33858 20.55342 -3.11978
 3.32 8.00 -2.864 -2.865 -2.864 -2.861 -2.857 11.46464 20.80339 -2.86967
 3.34-2.00 -5.434 -5.444 -5.430 -5.405 -5.375  4.52061 10.51957-13.15366
 3.34-1.50 -5.459 -5.471 -5.455 -5.430 -5.398  4.92536 11.01995-12.65345
 3.34-1.00 -5.473 -5.485 -5.469 -5.443 -5.410  5.36324 11.52061-12.15249
 3.34-0.50 -5.483 -5.495 -5.479 -5.451 -5.416  5.80747 12.02325-11.64975
 3.34 0.00 -5.484 -5.497 -5.479 -5.450 -5.415  6.23930 12.53148-11.14164
 3.34 0.50 -5.466 -5.480 -5.462 -5.432 -5.396  6.66323 13.05231-10.62088
 3.34 1.00 -5.423 -5.437 -5.418 -5.388 -5.352  7.09307 13.59284-10.08029
 3.34 1.25 -5.392 -5.406 -5.387 -5.357 -5.321  7.31425 13.86949 -9.80362
 3.34 1.50 -5.357 -5.371 -5.353 -5.323 -5.287  7.53542 14.14613 -9.52695
 3.34 1.75 -5.321 -5.334 -5.316 -5.287 -5.252  7.75589 14.42132 -9.25179
 3.34 2.00 -5.285 -5.298 -5.281 -5.253 -5.219  7.97511 14.69478 -8.97840
 3.34 2.25 -5.250 -5.262 -5.246 -5.220 -5.187  8.18200 14.96387 -8.70929
 3.34 2.50 -5.217 -5.229 -5.213 -5.188 -5.157  8.37876 15.22968 -8.44346
 3.34 2.75 -5.183 -5.193 -5.179 -5.157 -5.127  8.56211 15.49219 -8.18101
 3.34 3.00 -5.148 -5.158 -5.145 -5.124 -5.096  8.73624 15.75205 -7.92118
 3.34 3.20 -5.117 -5.126 -5.114 -5.094 -5.069  8.86888 15.95816 -7.71502
 3.34 3.40 -5.084 -5.093 -5.082 -5.063 -5.038  8.99892 16.16318 -7.50995
 3.34 3.60 -5.046 -5.054 -5.044 -5.027 -5.004  9.12608 16.36719 -7.30591
 3.34 3.80 -5.004 -5.011 -5.002 -4.986 -4.965  9.25233 16.57049 -7.10260
 3.34 4.00 -4.957 -4.963 -4.955 -4.941 -4.922  9.37858 16.77313 -6.89997
 3.34 4.20 -4.909 -4.915 -4.908 -4.894 -4.875  9.50545 16.97522 -6.69797
 3.34 4.40 -4.856 -4.862 -4.855 -4.842 -4.823  9.63287 17.17691 -6.49634
 3.34 4.60 -4.802 -4.807 -4.800 -4.787 -4.769  9.76151 17.37822 -6.29505
 3.34 4.80 -4.745 -4.750 -4.743 -4.730 -4.712  9.89093 17.57928 -6.09398
 3.34 5.00 -4.684 -4.689 -4.682 -4.670 -4.651 10.02036 17.78010 -5.89313
 3.34 5.20 -4.622 -4.627 -4.621 -4.608 -4.590 10.14843 17.98075 -5.69247
 3.34 5.40 -4.558 -4.563 -4.557 -4.545 -4.526 10.27507 18.18127 -5.49192
 3.34 5.60 -4.491 -4.497 -4.490 -4.479 -4.461 10.39944 18.38169 -5.29146
 3.34 5.80 -4.424 -4.428 -4.423 -4.411 -4.394 10.52053 18.58204 -5.09107
 3.34 6.00 -4.355 -4.359 -4.353 -4.342 -4.326 10.63889 18.78233 -4.89076
 3.34 6.25 -4.267 -4.271 -4.265 -4.256 -4.239 10.78237 19.03263 -4.64057
 3.34 6.50 -4.178 -4.182 -4.177 -4.167 -4.152 10.92205 19.28285 -4.39041
 3.34 6.75 -4.089 -4.092 -4.087 -4.078 -4.064 11.05834 19.53298 -4.14024
 3.34 7.00 -3.999 -4.002 -3.997 -3.989 -3.975 11.19201 19.78305 -3.89008
 3.34 7.25 -3.909 -3.913 -3.908 -3.900 -3.887 11.32352 20.03306 -3.64003
 3.34 7.50 -3.820 -3.823 -3.819 -3.811 -3.800 11.45332 20.28308 -3.38998
 3.34 7.75 -3.730 -3.734 -3.729 -3.722 -3.712 11.58187 20.53315 -3.13988
 3.34 8.00 -3.641 -3.645 -3.640 -3.634 -3.624 11.70902 20.78326 -2.88975
 3.36-2.00 -5.297 -5.307 -5.293 -5.269 -5.238  4.74943 10.49941-13.17373
 3.36-1.50 -5.359 -5.369 -5.354 -5.329 -5.297  5.09132 10.99948-12.67366
 3.36-1.00 -5.393 -5.404 -5.388 -5.362 -5.328  5.46553 11.49982-12.17334
 3.36-0.50 -5.402 -5.414 -5.398 -5.369 -5.334  5.87933 12.00087-11.67244
 3.36 0.00 -5.390 -5.403 -5.386 -5.356 -5.319  6.31597 12.50352-11.16960
 3.36 0.50 -5.353 -5.367 -5.348 -5.317 -5.280  6.75074 13.01157-10.66134
 3.36 1.00 -5.285 -5.300 -5.280 -5.248 -5.209  7.17898 13.53301-10.14020
 3.36 1.25 -5.241 -5.256 -5.236 -5.203 -5.165  7.39400 13.80167 -9.87167
 3.36 1.50 -5.192 -5.206 -5.186 -5.154 -5.116  7.61002 14.07408 -9.59929
 3.36 1.75 -5.139 -5.153 -5.134 -5.102 -5.065  7.82904 14.35073 -9.32252
 3.36 2.00 -5.085 -5.098 -5.080 -5.050 -5.013  8.04805 14.62737 -9.04576
 3.36 2.25 -5.030 -5.042 -5.025 -4.996 -4.962  8.26606 14.90248 -8.77066
 3.36 2.50 -4.977 -4.989 -4.973 -4.946 -4.913  8.48244 15.17580 -8.49744
 3.36 2.75 -4.927 -4.938 -4.923 -4.898 -4.866  8.68915 15.44473 -8.22835
 3.36 3.00 -4.880 -4.890 -4.876 -4.852 -4.823  8.88694 15.71037 -7.96257
 3.36 3.20 -4.842 -4.852 -4.839 -4.817 -4.789  9.03552 15.92047 -7.75265
 3.36 3.40 -4.805 -4.814 -4.802 -4.782 -4.755  9.17815 16.12890 -7.54435
 3.36 3.60 -4.767 -4.775 -4.764 -4.745 -4.720  9.31443 16.33566 -7.33757
 3.36 3.80 -4.726 -4.733 -4.724 -4.707 -4.683  9.44648 16.54118 -7.13192
 3.36 4.00 -4.682 -4.688 -4.680 -4.665 -4.643  9.57542 16.74562 -6.92738
 3.36 4.20 -4.639 -4.644 -4.637 -4.622 -4.601  9.70111 16.94920 -6.72390
 3.36 4.40 -4.591 -4.597 -4.589 -4.575 -4.555  9.82680 17.15213 -6.52105
 3.36 4.60 -4.540 -4.546 -4.538 -4.525 -4.506  9.95248 17.35441 -6.31878
 3.36 4.80 -4.488 -4.493 -4.486 -4.473 -4.454 10.07817 17.55626 -6.11691
 3.36 5.00 -4.430 -4.435 -4.429 -4.416 -4.397 10.20385 17.75770 -5.91542
 3.36 5.20 -4.370 -4.375 -4.368 -4.356 -4.338 10.33082 17.95880 -5.71435
 3.36 5.40 -4.306 -4.311 -4.305 -4.293 -4.275 10.45778 18.15970 -5.51345
 3.36 5.60 -4.239 -4.243 -4.238 -4.226 -4.209 10.58432 18.36044 -5.31270
 3.36 5.80 -4.170 -4.174 -4.168 -4.157 -4.140 10.70949 18.56106 -5.11204
 3.36 6.00 -4.098 -4.102 -4.097 -4.086 -4.070 10.83340 18.76155 -4.91151
 3.36 6.25 -4.007 -4.011 -4.006 -3.996 -3.981 10.98381 19.01190 -4.66112
 3.36 6.50 -3.915 -3.919 -3.914 -3.905 -3.891 11.13033 19.26221 -4.41083
 3.36 6.75 -3.823 -3.827 -3.822 -3.813 -3.801 11.27266 19.51253 -4.16062
 3.36 7.00 -3.731 -3.735 -3.730 -3.722 -3.711 11.41145 19.76283 -3.91045
 3.36 7.25 -3.640 -3.643 -3.640 -3.632 -3.621 11.54689 20.01288 -3.66029
 3.36 7.50 -3.550 -3.553 -3.549 -3.542 -3.533 11.67979 20.26293 -3.41016
 3.36 7.75 -3.461 -3.464 -3.460 -3.454 -3.445 11.81081 20.51304 -3.16010
 3.36 8.00 -3.373 -3.375 -3.372 -3.366 -3.358 11.93972 20.76320 -2.91010
 3.38-2.00 -5.120 -5.130 -5.116 -5.092 -5.063  5.00689 10.47943-13.19375
 3.38-1.50 -5.206 -5.215 -5.201 -5.176 -5.144  5.33706 10.97941-12.69379
 3.38-1.00 -5.274 -5.284 -5.269 -5.242 -5.208  5.66792 11.47958-12.19362
 3.38-0.50 -5.312 -5.324 -5.307 -5.279 -5.244  6.01870 11.97982-11.69336
 3.38 0.00 -5.311 -5.324 -5.306 -5.276 -5.239  6.40603 12.48087-11.19233
 3.38 0.50 -5.267 -5.281 -5.262 -5.230 -5.191  6.82679 12.98381-10.68931
 3.38 1.00 -5.178 -5.192 -5.172 -5.139 -5.098  7.25912 13.49262-10.18052
 3.38 1.25 -5.118 -5.133 -5.112 -5.080 -5.038  7.47474 13.75177 -9.92136
 3.38 1.50 -5.050 -5.065 -5.045 -5.011 -4.971  7.69037 14.01494 -9.65817
 3.38 1.75 -4.979 -4.994 -4.974 -4.941 -4.902  7.90687 14.28425 -9.38890
 3.38 2.00 -4.904 -4.919 -4.899 -4.868 -4.829  8.12385 14.55715 -9.11600
 3.38 2.25 -4.830 -4.844 -4.825 -4.796 -4.759  8.34146 14.83387 -8.83920
 3.38 2.50 -4.755 -4.769 -4.751 -4.723 -4.688  8.55907 15.11059 -8.56241
 3.38 2.75 -4.683 -4.695 -4.679 -4.653 -4.620  8.77481 15.38546 -8.28756
 3.38 3.00 -4.614 -4.626 -4.611 -4.587 -4.555  8.98802 15.65830 -8.01480
 3.38 3.20 -4.562 -4.573 -4.559 -4.536 -4.507  9.15279 15.87335 -7.79974
 3.38 3.40 -4.513 -4.522 -4.510 -4.489 -4.461  9.31238 16.08631 -7.58678
 3.38 3.60 -4.466 -4.475 -4.463 -4.444 -4.418  9.46538 16.29713 -7.37603
 3.38 3.80 -4.420 -4.427 -4.418 -4.400 -4.376  9.61132 16.50614 -7.16710
 3.38 4.00 -4.374 -4.381 -4.372 -4.357 -4.335  9.75143 16.71349 -6.95979
 3.38 4.20 -4.331 -4.338 -4.329 -4.315 -4.294  9.88535 16.91930 -6.75386
 3.38 4.40 -4.287 -4.292 -4.285 -4.271 -4.251 10.01589 17.12408 -6.54900
 3.38 4.60 -4.241 -4.247 -4.240 -4.227 -4.207 10.14282 17.32791 -6.34520
 3.38 4.80 -4.195 -4.200 -4.193 -4.181 -4.162 10.26816 17.53107 -6.14213
 3.38 5.00 -4.144 -4.149 -4.143 -4.130 -4.112 10.39287 17.73360 -5.93968
 3.38 5.20 -4.091 -4.096 -4.089 -4.078 -4.059 10.51714 17.93555 -5.73766
 3.38 5.40 -4.033 -4.037 -4.032 -4.020 -4.003 10.64141 18.13714 -5.53602
 3.38 5.60 -3.970 -3.974 -3.969 -3.957 -3.941 10.76600 18.33841 -5.33475
 3.38 5.80 -3.903 -3.907 -3.902 -3.891 -3.876 10.89089 18.53946 -5.13373
 3.38 6.00 -3.834 -3.837 -3.832 -3.823 -3.807 11.01578 18.74028 -4.93293
 3.38 6.25 -3.743 -3.746 -3.742 -3.733 -3.719 11.16985 18.99099 -4.68216
 3.38 6.50 -3.651 -3.653 -3.650 -3.642 -3.628 11.32181 19.24155 -4.43156
 3.38 6.75 -3.558 -3.560 -3.557 -3.549 -3.538 11.46990 19.49203 -4.18107
 3.38 7.00 -3.465 -3.468 -3.464 -3.457 -3.447 11.61448 19.74241 -3.93070
 3.38 7.25 -3.373 -3.375 -3.372 -3.365 -3.356 11.75500 19.99263 -3.68055
 3.38 7.50 -3.282 -3.284 -3.281 -3.276 -3.267 11.89226 20.24279 -3.43039
 3.38 7.75 -3.193 -3.195 -3.192 -3.187 -3.179 12.02677 20.49293 -3.18019
 3.38 8.00 -3.105 -3.106 -3.104 -3.100 -3.093 12.15836 20.74304 -2.92996
 3.40-2.00 -4.943 -4.952 -4.940 -4.918 -4.891  5.21932 10.45939-13.21375
 3.40-1.50 -5.029 -5.039 -5.025 -5.001 -4.970  5.57795 10.95938-12.71377
 3.40-1.00 -5.112 -5.122 -5.107 -5.081 -5.048  5.91418 11.45939-12.21375
 3.40-0.50 -5.177 -5.189 -5.173 -5.145 -5.110  6.24155 11.95952-11.71354
 3.40 0.00 -5.209 -5.221 -5.204 -5.174 -5.136  6.57807 12.45984-11.21325
 3.40 0.50 -5.184 -5.197 -5.179 -5.147 -5.107  6.94216 12.96099-10.71220
 3.40 1.00 -5.093 -5.108 -5.088 -5.055 -5.012  7.34282 13.46434-10.20873
 3.40 1.25 -5.025 -5.039 -5.020 -4.986 -4.944  7.55361 13.71813 -9.95495
 3.40 1.50 -4.944 -4.959 -4.939 -4.906 -4.863  7.76716 13.97414 -9.69897
 3.40 1.75 -4.853 -4.867 -4.848 -4.815 -4.775  7.98227 14.23420 -9.43896
 3.40 2.00 -4.755 -4.769 -4.750 -4.719 -4.679  8.19866 14.49845 -9.17477
 3.40 2.25 -4.657 -4.670 -4.652 -4.621 -4.583  8.41637 14.76891 -8.90442
 3.40 2.50 -4.557 -4.570 -4.553 -4.524 -4.487  8.63407 15.04258 -8.63078
 3.40 2.75 -4.462 -4.474 -4.458 -4.431 -4.398  8.85131 15.31937 -8.35387
 3.40 3.00 -4.371 -4.382 -4.367 -4.343 -4.311  9.06781 15.59616 -8.07696
 3.40 3.20 -4.302 -4.311 -4.298 -4.275 -4.246  9.23890 15.81580 -7.85726
 3.40 3.40 -4.236 -4.245 -4.233 -4.212 -4.184  9.40761 16.03391 -7.63911
 3.40 3.60 -4.173 -4.182 -4.170 -4.152 -4.126  9.57312 16.24992 -7.42311
 3.40 3.80 -4.115 -4.122 -4.112 -4.096 -4.072  9.73354 16.46343 -7.20965
 3.40 4.00 -4.060 -4.066 -4.058 -4.044 -4.022  9.88908 16.67486 -6.99827
 3.40 4.20 -4.010 -4.016 -4.009 -3.995 -3.975 10.03713 16.88411 -6.78904
 3.40 4.40 -3.964 -3.968 -3.962 -3.949 -3.931 10.17958 17.09180 -6.58135
 3.40 4.60 -3.919 -3.923 -3.917 -3.905 -3.887 10.31593 17.29801 -6.37509
 3.40 4.80 -3.875 -3.879 -3.874 -3.862 -3.845 10.44779 17.50314 -6.16991
 3.40 5.00 -3.830 -3.834 -3.828 -3.817 -3.800 10.57623 17.70723 -5.96577
 3.40 5.20 -3.783 -3.787 -3.782 -3.771 -3.755 10.70158 17.91039 -5.76264
 3.40 5.40 -3.732 -3.737 -3.731 -3.721 -3.706 10.82590 18.11297 -5.56010
 3.40 5.60 -3.678 -3.682 -3.677 -3.667 -3.652 10.94922 18.31505 -5.35809
 3.40 5.80 -3.619 -3.622 -3.618 -3.609 -3.594 11.07221 18.51679 -5.15641
 3.40 6.00 -3.555 -3.559 -3.554 -3.546 -3.532 11.19507 18.71817 -4.95507
 3.40 6.25 -3.471 -3.474 -3.470 -3.462 -3.450 11.34865 18.96942 -4.70372
 3.40 6.50 -3.383 -3.385 -3.382 -3.374 -3.363 11.50202 19.22037 -4.45272
 3.40 6.75 -3.292 -3.294 -3.291 -3.284 -3.274 11.65334 19.47114 -4.20207
 3.40 7.00 -3.200 -3.202 -3.199 -3.193 -3.184 11.80250 19.72173 -3.95156
 3.40 7.25 -3.108 -3.110 -3.107 -3.102 -3.093 11.94786 19.97215 -3.70111
 3.40 7.50 -3.017 -3.019 -3.017 -3.012 -3.004 12.08991 20.22246 -3.45075
 3.40 7.75 -2.928 -2.930 -2.927 -2.923 -2.916 12.22854 20.47271 -3.20052
 3.40 8.00 -2.841 -2.842 -2.840 -2.836 -2.830 12.36380 20.72288 -2.95039
 3.42-2.00 -4.798 -4.806 -4.794 -4.774 -4.749  5.35736 10.43949-13.23374
 3.42-1.50 -4.865 -4.874 -4.861 -4.838 -4.811  5.76072 10.93942-12.73377
 3.42-1.00 -4.940 -4.950 -4.936 -4.911 -4.880  6.13290 11.43949-12.23366
 3.42-0.50 -5.012 -5.023 -5.008 -4.981 -4.947  6.47799 11.93947-11.73377
 3.42 0.00 -5.063 -5.076 -5.058 -5.029 -4.991  6.80686 12.43965-11.23351
 3.42 0.50 -5.068 -5.081 -5.063 -5.031 -4.990  7.13577 12.94002-10.73306
 3.42 1.00 -5.001 -5.015 -4.995 -4.962 -4.918  7.48302 13.44138-10.23181
 3.42 1.25 -4.937 -4.951 -4.931 -4.897 -4.853  7.66937 13.69287 -9.98035
 3.42 1.50 -4.854 -4.869 -4.848 -4.815 -4.771  7.86386 13.94532 -9.72793
 3.42 1.75 -4.754 -4.769 -4.749 -4.717 -4.673  8.06732 14.19974 -9.47349
 3.42 2.00 -4.642 -4.656 -4.637 -4.606 -4.563  8.27623 14.45667 -9.21653
 3.42 2.25 -4.520 -4.534 -4.515 -4.485 -4.446  8.48950 14.71795 -8.95519
 3.42 2.50 -4.394 -4.407 -4.390 -4.362 -4.324  8.70527 14.98358 -8.68952
 3.42 2.75 -4.272 -4.283 -4.268 -4.242 -4.207  8.92336 15.25564 -8.41756
 3.42 3.00 -4.155 -4.165 -4.151 -4.127 -4.095  9.14145 15.53020 -8.14303
 3.42 3.20 -4.067 -4.076 -4.064 -4.042 -4.013  9.31500 15.75152 -7.92164
 3.42 3.40 -3.984 -3.992 -3.982 -3.961 -3.934  9.48749 15.97284 -7.70025
 3.42 3.60 -3.906 -3.913 -3.904 -3.886 -3.861  9.65833 16.19329 -7.47978
 3.42 3.80 -3.832 -3.838 -3.830 -3.814 -3.793  9.82611 16.41155 -7.26153
 3.42 4.00 -3.764 -3.769 -3.762 -3.748 -3.728  9.99096 16.62808 -7.04503
 3.42 4.20 -3.702 -3.707 -3.701 -3.688 -3.670 10.15133 16.84171 -6.83139
 3.42 4.40 -3.646 -3.650 -3.644 -3.633 -3.616 10.30692 17.05332 -6.61976
 3.42 4.60 -3.595 -3.598 -3.593 -3.583 -3.566 10.45678 17.26290 -6.41015
 3.42 4.80 -3.548 -3.551 -3.546 -3.536 -3.520 10.60054 17.47087 -6.20217
 3.42 5.00 -3.502 -3.505 -3.501 -3.491 -3.476 10.73902 17.67733 -5.99568
 3.42 5.20 -3.458 -3.461 -3.457 -3.447 -3.433 10.87172 17.88243 -5.79059
 3.42 5.40 -3.413 -3.416 -3.412 -3.403 -3.389 11.00106 18.08661 -5.58641
 3.42 5.60 -3.365 -3.368 -3.364 -3.356 -3.342 11.12696 18.28996 -5.38302
 3.42 5.80 -3.314 -3.317 -3.313 -3.305 -3.293 11.25102 18.49274 -5.18021
 3.42 6.00 -3.260 -3.263 -3.259 -3.251 -3.239 11.37383 18.69496 -4.97798
 3.42 6.25 -3.186 -3.188 -3.185 -3.178 -3.166 11.52636 18.94706 -4.72607
 3.42 6.50 -3.105 -3.107 -3.105 -3.098 -3.088 11.67806 19.19866 -4.47457
 3.42 6.75 -3.021 -3.023 -3.020 -3.014 -3.005 11.82942 19.44988 -4.22326
 3.42 7.00 -2.934 -2.935 -2.933 -2.927 -2.919 11.97987 19.70079 -3.97224
 3.42 7.25 -2.845 -2.846 -2.844 -2.839 -2.832 12.12819 19.95145 -3.72165
 3.42 7.50 -2.756 -2.757 -2.755 -2.750 -2.744 12.27416 20.20194 -3.47121
 3.42 7.75 -2.668 -2.669 -2.667 -2.663 -2.657 12.41657 20.45234 -3.22086
 3.42 8.00 -2.581 -2.583 -2.581 -2.577 -2.572 12.55582 20.70260 -2.97062
 3.44-2.00 -4.693 -4.700 -4.689 -4.671 -4.647  5.43152 10.41946-13.25368
 3.44-1.50 -4.735 -4.743 -4.731 -4.710 -4.685  5.87373 10.91939-12.75375
 3.44-1.00 -4.789 -4.798 -4.785 -4.762 -4.733  6.28937 11.41946-12.25368
 3.44-0.50 -4.848 -4.858 -4.843 -4.818 -4.785  6.67468 11.91944-11.75375
 3.44 0.00 -4.897 -4.909 -4.892 -4.864 -4.827  7.02979 12.41946-11.25360
 3.44 0.50 -4.913 -4.927 -4.908 -4.876 -4.835  7.36286 12.91965-10.75350
 3.44 1.00 -4.869 -4.883 -4.863 -4.829 -4.785  7.68878 13.42012-10.25298
 3.44 1.25 -4.816 -4.831 -4.811 -4.777 -4.731  7.85497 13.67072-10.00234
 3.44 1.50 -4.744 -4.758 -4.738 -4.704 -4.659  8.02490 13.92174 -9.75129
 3.44 1.75 -4.648 -4.663 -4.643 -4.610 -4.565  8.20308 14.17361 -9.49949
 3.44 2.00 -4.535 -4.549 -4.531 -4.498 -4.455  8.38899 14.42667 -9.24657
 3.44 2.25 -4.405 -4.418 -4.401 -4.370 -4.329  8.58463 14.68191 -8.99137
 3.44 2.50 -4.265 -4.277 -4.261 -4.232 -4.194  8.78760 14.93997 -8.73330
 3.44 2.75 -4.120 -4.131 -4.116 -4.090 -4.054  8.99771 15.20304 -8.47015
 3.44 3.00 -3.976 -3.986 -3.973 -3.949 -3.917  9.21165 15.47056 -8.20253
 3.44 3.20 -3.868 -3.876 -3.864 -3.843 -3.814  9.38567 15.68934 -7.98365
 3.44 3.40 -3.764 -3.772 -3.761 -3.743 -3.716  9.55969 15.90920 -7.76377
 3.44 3.60 -3.668 -3.674 -3.665 -3.649 -3.625  9.73324 16.13015 -7.54287
 3.44 3.80 -3.578 -3.584 -3.576 -3.562 -3.541  9.90528 16.35140 -7.32172
 3.44 4.00 -3.495 -3.500 -3.494 -3.481 -3.463 10.07591 16.57264 -7.10056
 3.44 4.20 -3.421 -3.425 -3.419 -3.409 -3.392 10.24301 16.79092 -6.88232
 3.44 4.40 -3.352 -3.355 -3.350 -3.341 -3.325 10.40670 17.00721 -6.66603
 3.44 4.60 -3.289 -3.293 -3.288 -3.279 -3.265 10.56668 17.22117 -6.45204
 3.44 4.80 -3.233 -3.236 -3.232 -3.223 -3.210 10.72194 17.43284 -6.24033
 3.44 5.00 -3.181 -3.184 -3.180 -3.171 -3.159 10.87245 17.64256 -6.03059
 3.44 5.20 -3.134 -3.137 -3.133 -3.125 -3.113 11.01660 17.85052 -5.82270
 3.44 5.40 -3.088 -3.091 -3.087 -3.080 -3.068 11.15578 18.05709 -5.61618
 3.44 5.60 -3.043 -3.046 -3.042 -3.035 -3.024 11.28961 18.26232 -5.41096
 3.44 5.80 -2.997 -3.000 -2.996 -2.989 -2.978 11.41940 18.46657 -5.20666
 3.44 6.00 -2.949 -2.951 -2.948 -2.941 -2.932 11.54593 18.66997 -5.00323
 3.44 6.25 -2.885 -2.887 -2.884 -2.878 -2.869 11.70032 18.92328 -4.74995
 3.44 6.50 -2.816 -2.818 -2.815 -2.809 -2.801 11.85254 19.17580 -4.49744
 3.44 6.75 -2.741 -2.743 -2.741 -2.735 -2.727 12.00352 19.42772 -4.24546
 3.44 7.00 -2.662 -2.664 -2.662 -2.657 -2.649 12.15321 19.67916 -3.99396
 3.44 7.25 -2.579 -2.581 -2.578 -2.574 -2.567 12.30201 19.93020 -3.74294
 3.44 7.50 -2.495 -2.496 -2.494 -2.490 -2.484 12.44932 20.18099 -3.49215
 3.44 7.75 -2.410 -2.412 -2.410 -2.406 -2.400 12.59414 20.43162 -3.24148
 3.44 8.00 -2.326 -2.328 -2.326 -2.322 -2.317 12.73680 20.68206 -2.99097
 3.46-2.00 -4.626 -4.633 -4.623 -4.605 -4.583  5.45225 10.39933-13.27376
 3.46-1.50 -4.644 -4.651 -4.640 -4.621 -4.597  5.92845 10.89938-12.77366
 3.46-1.00 -4.673 -4.681 -4.669 -4.648 -4.620  6.38130 11.39950-12.27376
 3.46-0.50 -4.708 -4.718 -4.704 -4.680 -4.649  6.80740 11.89938-11.77366
 3.46 0.00 -4.738 -4.749 -4.733 -4.706 -4.671  7.20412 12.39950-11.27368
 3.46 0.50 -4.743 -4.757 -4.738 -4.708 -4.668  7.56914 12.89949-10.77366
