 ROSSELAND MASS ABSORPTION COEFFICIENTS [-0.5]
 logT logP  0km/s  1km/s  2km/s  4km/s  8km/s  log Ne   log Na  log rho IPloCM-1
 3.32-2.00 -5.464 -5.479 -5.464 -5.439 -5.409  4.85315 10.53983-13.13147   0.001
 3.32-1.50 -5.483 -5.499 -5.483 -5.457 -5.426  5.29403 11.04060-12.63060   0.002
 3.32-1.00 -5.510 -5.527 -5.510 -5.483 -5.451  5.71508 11.54357-12.12773   0.004
 3.32-0.50 -5.539 -5.556 -5.539 -5.511 -5.478  6.12450 12.05192-11.61943   0.006
 3.32 0.00 -5.558 -5.575 -5.558 -5.530 -5.497  6.53958 12.57322-11.09811   0.010
 3.32 0.50 -5.555 -5.573 -5.555 -5.527 -5.494  6.97864 13.11428-10.55705   0.016
 3.32 1.00 -5.531 -5.549 -5.531 -5.503 -5.470  7.42700 13.66783-10.00349   0.027
 3.32 1.25 -5.515 -5.533 -5.515 -5.487 -5.454  7.63836 13.94284 -9.72843   0.034
 3.32 1.50 -5.499 -5.516 -5.499 -5.471 -5.438  7.83923 14.21590 -9.45531   0.043
 3.32 1.75 -5.482 -5.498 -5.482 -5.455 -5.422  8.02515 14.48487 -9.18643   0.054
 3.32 2.00 -5.463 -5.479 -5.463 -5.437 -5.406  8.20140 14.75059 -8.92082   0.066
 3.32 2.25 -5.442 -5.457 -5.442 -5.417 -5.387  8.36855 15.01286 -8.65851   0.080
 3.32 2.50 -5.418 -5.432 -5.418 -5.395 -5.366  8.53199 15.27254 -8.39881   0.096
 3.32 2.75 -5.388 -5.401 -5.388 -5.366 -5.339  8.69242 15.52996 -8.14143   0.116
 3.32 3.00 -5.352 -5.364 -5.352 -5.333 -5.307  8.85285 15.78569 -7.88572   0.139
 3.32 3.20 -5.318 -5.329 -5.318 -5.300 -5.276  8.98245 15.98926 -7.68214   0.161
 3.32 3.40 -5.279 -5.289 -5.279 -5.262 -5.239  9.11288 16.19216 -7.47921   0.187
 3.32 3.60 -5.234 -5.243 -5.234 -5.218 -5.197  9.24467 16.39442 -7.27690   0.218
 3.32 3.80 -5.183 -5.191 -5.183 -5.168 -5.149  9.37720 16.59624 -7.07502   0.254
 3.32 4.00 -5.126 -5.133 -5.126 -5.113 -5.095  9.50974 16.79768 -6.87354   0.296
 3.32 4.20 -5.068 -5.075 -5.068 -5.055 -5.037  9.64050 16.99884 -6.67247   0.344
 3.32 4.40 -5.004 -5.011 -5.004 -4.992 -4.974  9.76950 17.19978 -6.47158   0.399
 3.32 4.60 -4.937 -4.944 -4.937 -4.925 -4.907  9.89576 17.40050 -6.27083   0.462
 3.32 4.80 -4.866 -4.873 -4.866 -4.854 -4.836 10.01827 17.60108 -6.07018   0.532
 3.32 5.00 -4.787 -4.794 -4.787 -4.775 -4.757 10.13767 17.80154 -5.86967   0.610
 3.32 5.20 -4.702 -4.708 -4.702 -4.690 -4.672 10.25352 18.00190 -5.66936   0.697
 3.32 5.40 -4.606 -4.612 -4.606 -4.594 -4.577 10.36678 18.20221 -5.46909   0.794
 3.32 5.60 -4.497 -4.503 -4.497 -4.486 -4.469 10.47747 18.40246 -5.26883   0.902
 3.32 5.80 -4.372 -4.378 -4.372 -4.362 -4.346 10.58625 18.60268 -5.06859   1.022
 3.32 6.00 -4.229 -4.234 -4.229 -4.219 -4.204 10.69329 18.80284 -4.86838   1.156
 3.32 6.25 -4.016 -4.021 -4.016 -4.008 -3.995 10.82507 19.05291 -4.61832   1.345
 3.32 6.50 -3.759 -3.762 -3.759 -3.752 -3.741 10.95521 19.30298 -4.36825   1.563
 3.32 6.75 -3.448 -3.451 -3.448 -3.442 -3.434 11.08408 19.55308 -4.11816   1.813
 3.32 7.00 -3.243 -3.246 -3.243 -3.239 -3.232 11.21192 19.80318 -3.86806   2.101
 3.32 7.25 -3.126 -3.128 -3.126 -3.122 -3.116 11.33894 20.05319 -3.61805   2.432
 3.32 7.50 -3.014 -3.016 -3.014 -3.011 -3.006 11.46523 20.30320 -3.36805   2.812
 3.32 7.75 -2.907 -2.909 -2.907 -2.904 -2.900 11.59094 20.55325 -3.11805   3.250
 3.32 8.00 -2.805 -2.807 -2.805 -2.802 -2.798 11.71600 20.80332 -2.86806   3.754
 3.34-2.00 -5.386 -5.401 -5.386 -5.361 -5.330  4.92505 10.51943-13.15187   0.001
 3.34-1.50 -5.408 -5.424 -5.408 -5.382 -5.350  5.36229 11.01953-12.65170   0.002
 3.34-1.00 -5.421 -5.437 -5.421 -5.394 -5.360  5.80496 11.52061-12.15070   0.004
 3.34-0.50 -5.432 -5.449 -5.432 -5.403 -5.368  6.23249 12.02325-11.64801   0.007
 3.34 0.00 -5.435 -5.454 -5.435 -5.405 -5.369  6.64650 12.53135-11.13990   0.011
 3.34 0.50 -5.419 -5.438 -5.419 -5.388 -5.351  7.06070 13.05231-10.61907   0.017
 3.34 1.00 -5.375 -5.394 -5.375 -5.343 -5.306  7.49234 13.59284-10.07852   0.028
 3.34 1.25 -5.342 -5.362 -5.342 -5.311 -5.274  7.71448 13.86949 -9.80186   0.036
 3.34 1.50 -5.307 -5.326 -5.307 -5.276 -5.239  7.93661 14.14613 -9.52520   0.047
 3.34 1.75 -5.270 -5.289 -5.270 -5.240 -5.204  8.14946 14.42129 -9.25008   0.060
 3.34 2.00 -5.235 -5.253 -5.235 -5.206 -5.171  8.35353 14.69469 -8.97675   0.076
 3.34 2.25 -5.201 -5.218 -5.201 -5.174 -5.140  8.54259 14.96383 -8.70756   0.095
 3.34 2.50 -5.169 -5.185 -5.169 -5.143 -5.111  8.72148 15.22968 -8.44165   0.117
 3.34 2.75 -5.135 -5.150 -5.135 -5.112 -5.081  8.89056 15.49214 -8.17920   0.142
 3.34 3.00 -5.101 -5.115 -5.101 -5.079 -5.051  9.05461 15.75197 -7.91937   0.171
 3.34 3.20 -5.070 -5.083 -5.070 -5.049 -5.023  9.18223 15.95812 -7.71322   0.198
 3.34 3.40 -5.037 -5.049 -5.037 -5.017 -4.992  9.30984 16.16318 -7.50817   0.229
 3.34 3.60 -4.998 -5.009 -4.998 -4.980 -4.957  9.43756 16.36718 -7.30416   0.266
 3.34 3.80 -4.955 -4.964 -4.955 -4.938 -4.916  9.56561 16.57046 -7.10087   0.309
 3.34 4.00 -4.906 -4.914 -4.906 -4.891 -4.871  9.69399 16.77306 -6.89825   0.358
 3.34 4.20 -4.857 -4.865 -4.857 -4.842 -4.822  9.82387 16.97506 -6.69618   0.416
 3.34 4.40 -4.802 -4.810 -4.802 -4.788 -4.769  9.95376 17.17669 -6.49452   0.483
 3.34 4.60 -4.746 -4.753 -4.746 -4.732 -4.713 10.08311 17.37802 -6.29326   0.560
 3.34 4.80 -4.688 -4.695 -4.688 -4.674 -4.655 10.21083 17.57914 -6.09225   0.649
 3.34 5.00 -4.626 -4.633 -4.626 -4.613 -4.593 10.33706 17.78003 -5.89144   0.750
 3.34 5.20 -4.564 -4.571 -4.564 -4.551 -4.532 10.45968 17.98072 -5.69071   0.864
 3.34 5.40 -4.500 -4.507 -4.500 -4.487 -4.468 10.57952 18.18127 -5.49012   0.991
 3.34 5.60 -4.433 -4.440 -4.433 -4.421 -4.403 10.69633 18.38168 -5.28967   1.134
 3.34 5.80 -4.366 -4.372 -4.366 -4.354 -4.336 10.81036 18.58201 -5.08933   1.293
 3.34 6.00 -4.297 -4.303 -4.297 -4.285 -4.268 10.92195 18.78226 -4.88907   1.470
 3.34 6.25 -4.209 -4.215 -4.209 -4.199 -4.182 11.05828 19.03244 -4.63887   1.720
 3.34 6.50 -4.121 -4.127 -4.121 -4.111 -4.095 11.19201 19.28262 -4.38870   2.006
 3.34 6.75 -4.032 -4.037 -4.032 -4.022 -4.007 11.32364 19.53280 -4.13854   2.335
 3.34 7.00 -3.942 -3.947 -3.942 -3.933 -3.919 11.45363 19.78298 -3.88840   2.712
 3.34 7.25 -3.853 -3.858 -3.853 -3.844 -3.831 11.58230 20.03303 -3.63834   3.145
 3.34 7.50 -3.764 -3.768 -3.764 -3.755 -3.744 11.70986 20.28308 -3.38828   3.642
 3.34 7.75 -3.674 -3.679 -3.674 -3.667 -3.656 11.83658 20.53313 -3.13818   4.214
 3.34 8.00 -3.585 -3.590 -3.585 -3.578 -3.568 11.96237 20.78319 -2.88807   4.871
 3.36-2.00 -5.255 -5.269 -5.255 -5.230 -5.199  5.09132 10.49941-13.17199   0.002
 3.36-1.50 -5.314 -5.329 -5.314 -5.288 -5.255  5.46523 10.99939-12.67182   0.003
 3.36-1.00 -5.344 -5.360 -5.344 -5.317 -5.283  5.87846 11.49969-12.17160   0.004
 3.36-0.50 -5.351 -5.368 -5.351 -5.322 -5.286  6.31323 12.00043-11.67081   0.007
 3.36 0.00 -5.339 -5.357 -5.339 -5.308 -5.270  6.74367 12.50352-11.16787   0.012
 3.36 0.50 -5.302 -5.322 -5.302 -5.270 -5.231  7.16167 13.01157-10.65956   0.019
 3.36 1.00 -5.234 -5.255 -5.234 -5.200 -5.160  7.57749 13.53288-10.13841   0.031
 3.36 1.25 -5.189 -5.210 -5.189 -5.155 -5.115  7.78987 13.80137 -9.86981   0.039
 3.36 1.50 -5.138 -5.159 -5.138 -5.105 -5.065  8.00518 14.07372 -9.59739   0.050
 3.36 1.75 -5.084 -5.104 -5.084 -5.051 -5.013  8.22485 14.35054 -9.32069   0.064
 3.36 2.00 -5.028 -5.047 -5.028 -4.997 -4.959  8.44451 14.62737 -9.04398   0.083
 3.36 2.25 -4.972 -4.990 -4.972 -4.942 -4.907  8.65683 14.90241 -8.76889   0.106
 3.36 2.50 -4.919 -4.936 -4.919 -4.891 -4.857  8.86165 15.17551 -8.49567   0.134
 3.36 2.75 -4.869 -4.885 -4.869 -4.843 -4.810  9.05231 15.44458 -8.22668   0.167
 3.36 3.00 -4.823 -4.838 -4.823 -4.798 -4.768  9.23274 15.71037 -7.96098   0.205
 3.36 3.20 -4.786 -4.800 -4.786 -4.763 -4.734  9.36918 15.92035 -7.75094   0.240
 3.36 3.40 -4.749 -4.762 -4.749 -4.728 -4.700  9.50199 16.12868 -7.54258   0.280
 3.36 3.60 -4.711 -4.723 -4.711 -4.691 -4.665  9.63085 16.33545 -7.33586   0.325
 3.36 3.80 -4.670 -4.680 -4.670 -4.652 -4.627  9.75812 16.54104 -7.13036   0.376
 3.36 4.00 -4.625 -4.634 -4.625 -4.609 -4.587  9.88491 16.74554 -6.92592   0.435
 3.36 4.20 -4.581 -4.589 -4.581 -4.565 -4.544 10.01139 16.94905 -6.72233   0.503
 3.36 4.40 -4.532 -4.540 -4.532 -4.517 -4.496 10.13788 17.15191 -6.51939   0.583
 3.36 4.60 -4.480 -4.488 -4.480 -4.466 -4.446 10.26484 17.35418 -6.31705   0.675
 3.36 4.80 -4.427 -4.434 -4.427 -4.413 -4.393 10.39227 17.55605 -6.11514   0.781
 3.36 5.00 -4.368 -4.375 -4.368 -4.355 -4.335 10.51970 17.75755 -5.91364   0.904
 3.36 5.20 -4.307 -4.314 -4.307 -4.294 -4.275 10.64584 17.95873 -5.71255   1.045
 3.36 5.40 -4.243 -4.250 -4.243 -4.231 -4.212 10.77066 18.15968 -5.51166   1.207
 3.36 5.60 -4.176 -4.182 -4.176 -4.164 -4.146 10.89339 18.36042 -5.31091   1.390
 3.36 5.80 -4.107 -4.113 -4.107 -4.095 -4.078 11.01313 18.56102 -5.11026   1.595
 3.36 6.00 -4.036 -4.041 -4.036 -4.025 -4.008 11.13033 18.76148 -4.90974   1.826
 3.36 6.25 -3.946 -3.951 -3.946 -3.936 -3.920 11.27266 19.01188 -4.65934   2.151
 3.36 6.50 -3.855 -3.860 -3.855 -3.846 -3.831 11.41145 19.26221 -4.40905   2.524
 3.36 6.75 -3.764 -3.769 -3.764 -3.755 -3.742 11.54708 19.51252 -4.15885   2.951
 3.36 7.00 -3.673 -3.678 -3.673 -3.665 -3.653 11.68025 19.76275 -3.90869   3.440
 3.36 7.25 -3.583 -3.587 -3.583 -3.575 -3.564 11.81135 20.01284 -3.65852   4.000
 3.36 7.50 -3.493 -3.497 -3.493 -3.486 -3.476 11.94082 20.26293 -3.40838   4.643
 3.36 7.75 -3.404 -3.408 -3.404 -3.398 -3.389 12.06904 20.51302 -3.15832   5.382
 3.36 8.00 -3.316 -3.319 -3.316 -3.310 -3.302 12.19590 20.76313 -2.90833   6.228
 3.38-2.00 -5.077 -5.091 -5.077 -5.053 -5.024  5.33706 10.47929-13.19199   0.002
 3.38-1.50 -5.164 -5.178 -5.164 -5.138 -5.106  5.66773 10.97932-12.69208   0.003
 3.38-1.00 -5.231 -5.246 -5.231 -5.203 -5.169  6.01870 11.47943-12.19186   0.005
 3.38-0.50 -5.266 -5.283 -5.266 -5.237 -5.201  6.40518 11.97973-11.69165   0.008
 3.38 0.00 -5.261 -5.279 -5.261 -5.230 -5.192  6.82413 12.48073-11.19058   0.013
 3.38 0.50 -5.214 -5.234 -5.214 -5.181 -5.141  7.25164 12.98372-10.68761   0.021
 3.38 1.00 -5.123 -5.144 -5.123 -5.088 -5.046  7.67219 13.49262-10.17875   0.033
 3.38 1.25 -5.062 -5.083 -5.062 -5.028 -4.985  7.88122 13.75178 -9.91967   0.042
 3.38 1.50 -4.993 -5.014 -4.993 -4.958 -4.916  8.09026 14.01494 -9.65659   0.054
 3.38 1.75 -4.920 -4.941 -4.920 -4.886 -4.846  8.30261 14.28417 -9.38722   0.069
 3.38 2.00 -4.843 -4.864 -4.843 -4.811 -4.771  8.51693 14.55703 -9.11424   0.088
 3.38 2.25 -4.767 -4.786 -4.767 -4.736 -4.698  8.73392 14.83381 -8.83746   0.113
 3.38 2.50 -4.690 -4.709 -4.690 -4.661 -4.625  8.95090 15.11059 -8.56067   0.145
 3.38 2.75 -4.616 -4.633 -4.616 -4.589 -4.555  9.16161 15.38548 -8.28582   0.185
 3.38 3.00 -4.547 -4.563 -4.547 -4.522 -4.489  9.36567 15.65830 -8.01305   0.234
 3.38 3.20 -4.495 -4.510 -4.495 -4.471 -4.441  9.51906 15.87335 -7.79797   0.279
 3.38 3.40 -4.447 -4.460 -4.447 -4.425 -4.396  9.66607 16.08632 -7.58497   0.331
 3.38 3.60 -4.401 -4.413 -4.401 -4.381 -4.354  9.80609 16.29711 -7.37414   0.389
 3.38 3.80 -4.356 -4.366 -4.356 -4.337 -4.312  9.94094 16.50607 -7.16515   0.454
 3.38 4.00 -4.311 -4.320 -4.311 -4.295 -4.272 10.07188 16.71341 -6.95782   0.528
 3.38 4.20 -4.268 -4.277 -4.268 -4.253 -4.231 10.19917 16.91926 -6.75202   0.611
 3.38 4.40 -4.224 -4.231 -4.224 -4.209 -4.188 10.32548 17.12407 -6.54726   0.707
 3.38 4.60 -4.178 -4.186 -4.178 -4.165 -4.144 10.45083 17.32789 -6.34346   0.817
 3.38 4.80 -4.131 -4.138 -4.131 -4.118 -4.098 10.57594 17.53102 -6.14031   0.943
 3.38 5.00 -4.080 -4.087 -4.080 -4.067 -4.048 10.70105 17.73352 -5.93779   1.089
 3.38 5.20 -4.026 -4.033 -4.026 -4.014 -3.995 10.82627 17.93551 -5.73583   1.258
 3.38 5.40 -3.968 -3.974 -3.968 -3.956 -3.938 10.95149 18.13713 -5.53423   1.453
 3.38 5.60 -3.905 -3.910 -3.905 -3.893 -3.876 11.07621 18.33838 -5.33295   1.677
 3.38 5.80 -3.838 -3.843 -3.838 -3.827 -3.811 11.19946 18.53940 -5.13190   1.932
 3.38 6.00 -3.769 -3.774 -3.769 -3.759 -3.743 11.32139 18.74021 -4.93107   2.224
 3.38 6.25 -3.679 -3.684 -3.679 -3.670 -3.656 11.46980 18.99097 -4.68038   2.638
 3.38 6.50 -3.588 -3.592 -3.588 -3.580 -3.566 11.61458 19.24155 -4.42981   3.117
 3.38 6.75 -3.497 -3.500 -3.497 -3.489 -3.477 11.75536 19.49199 -4.17928   3.665
 3.38 7.00 -3.405 -3.409 -3.405 -3.398 -3.387 11.89287 19.74233 -3.92886   4.294
 3.38 7.25 -3.314 -3.317 -3.314 -3.307 -3.297 12.02739 19.99260 -3.67873   5.014
 3.38 7.50 -3.224 -3.227 -3.224 -3.218 -3.209 12.15957 20.24279 -3.42864   5.838
 3.38 7.75 -3.135 -3.138 -3.135 -3.130 -3.122 12.28999 20.49291 -3.17856   6.784
 3.38 8.00 -3.048 -3.050 -3.048 -3.043 -3.036 12.41847 20.74296 -2.92849   7.864
 3.40-2.00 -4.896 -4.909 -4.896 -4.874 -4.847  5.57784 10.45924-13.21197   0.003
 3.40-1.50 -4.985 -4.999 -4.985 -4.961 -4.930  5.91403 10.95928-12.71198   0.004
 3.40-1.00 -5.070 -5.085 -5.070 -5.043 -5.010  6.24155 11.45939-12.21197   0.006
 3.40-0.50 -5.135 -5.152 -5.135 -5.107 -5.071  6.57761 11.95942-11.71197   0.009
 3.40 0.00 -5.164 -5.182 -5.164 -5.133 -5.094  6.94126 12.45984-11.21148   0.014
 3.40 0.50 -5.134 -5.153 -5.134 -5.101 -5.060  7.33985 12.96090-10.71041   0.022
 3.40 1.00 -5.038 -5.059 -5.038 -5.004 -4.960  7.75891 13.46434-10.20698   0.036
 3.40 1.25 -4.968 -4.988 -4.968 -4.933 -4.889  7.96893 13.71810 -9.95321   0.046
 3.40 1.50 -4.884 -4.905 -4.884 -4.850 -4.806  8.17898 13.97405 -9.69724   0.058
 3.40 1.75 -4.791 -4.811 -4.791 -4.757 -4.715  8.38903 14.23409 -9.43722   0.074
 3.40 2.00 -4.690 -4.710 -4.690 -4.657 -4.616  8.59912 14.49831 -9.17302   0.095
 3.40 2.25 -4.589 -4.608 -4.589 -4.557 -4.517  8.81189 14.76858 -8.90260   0.121
 3.40 2.50 -4.487 -4.505 -4.487 -4.457 -4.419  9.02572 15.04218 -8.62893   0.155
 3.40 2.75 -4.390 -4.407 -4.390 -4.362 -4.327  9.24059 15.31917 -8.35207   0.198
 3.40 3.00 -4.297 -4.313 -4.297 -4.272 -4.239  9.45545 15.59616 -8.07520   0.254
 3.40 3.20 -4.227 -4.241 -4.227 -4.203 -4.173  9.62269 15.81584 -7.85550   0.308
 3.40 3.40 -4.161 -4.174 -4.161 -4.139 -4.111  9.78571 16.03394 -7.63735   0.371
 3.40 3.60 -4.099 -4.111 -4.099 -4.080 -4.053  9.94262 16.24990 -7.42136   0.445
 3.40 3.80 -4.042 -4.052 -4.042 -4.025 -4.000 10.09201 16.46337 -7.20791   0.528
 3.40 4.00 -3.989 -3.997 -3.989 -3.974 -3.952 10.23528 16.67477 -6.99654   0.622
 3.40 4.20 -3.941 -3.949 -3.941 -3.927 -3.906 10.37164 16.88406 -6.78726   0.728
 3.40 4.40 -3.896 -3.902 -3.896 -3.882 -3.863 10.50406 17.09179 -6.57953   0.848
 3.40 4.60 -3.852 -3.858 -3.852 -3.839 -3.820 10.63242 17.29799 -6.37333   0.983
 3.40 4.80 -3.809 -3.815 -3.809 -3.797 -3.779 10.75866 17.50308 -6.16824   1.137
 3.40 5.00 -3.764 -3.770 -3.764 -3.752 -3.735 10.88355 17.70714 -5.96417   1.313
 3.40 5.20 -3.718 -3.723 -3.718 -3.707 -3.690 11.00748 17.91035 -5.76100   1.514
 3.40 5.40 -3.667 -3.673 -3.667 -3.657 -3.641 11.13113 18.11296 -5.55839   1.745
 3.40 5.60 -3.613 -3.618 -3.613 -3.603 -3.587 11.25464 18.31503 -5.35628   2.012
 3.40 5.80 -3.554 -3.558 -3.554 -3.544 -3.529 11.37800 18.51673 -5.15451   2.319
 3.40 6.00 -3.490 -3.495 -3.490 -3.481 -3.467 11.50106 18.71809 -4.95312   2.673
 3.40 6.25 -3.406 -3.410 -3.406 -3.398 -3.385 11.65287 18.96939 -4.70192   3.183
 3.40 6.50 -3.319 -3.322 -3.319 -3.311 -3.299 11.80243 19.22037 -4.45100   3.781
 3.40 6.75 -3.229 -3.232 -3.229 -3.222 -3.211 11.94818 19.47109 -4.20022   4.472
 3.40 7.00 -3.138 -3.141 -3.138 -3.132 -3.122 12.09061 19.72165 -3.94962   5.270
 3.40 7.25 -3.047 -3.050 -3.047 -3.042 -3.033 12.22955 19.97211 -3.69922   6.183
 3.40 7.50 -2.958 -2.960 -2.958 -2.953 -2.945 12.36549 20.22246 -3.44892   7.230
 3.40 7.75 -2.869 -2.872 -2.869 -2.865 -2.858 12.49882 20.47269 -3.19866   8.430
 3.40 8.00 -2.783 -2.785 -2.783 -2.779 -2.772 12.62941 20.72280 -2.94846   9.798
 3.42-2.00 -4.744 -4.756 -4.744 -4.724 -4.699  5.76065 10.43933-13.23195   0.004
 3.42-1.50 -4.816 -4.829 -4.816 -4.793 -4.765  6.13290 10.93932-12.73189   0.005
 3.42-1.00 -4.895 -4.909 -4.895 -4.870 -4.838  6.47784 11.43933-12.23195   0.008
 3.42-0.50 -4.969 -4.985 -4.969 -4.942 -4.907  6.80665 11.93937-11.73189   0.012
 3.42 0.00 -5.020 -5.038 -5.020 -4.990 -4.951  7.13545 12.43949-11.23173   0.017
 3.42 0.50 -5.022 -5.041 -5.022 -4.989 -4.947  7.48202 12.93992-10.73142   0.026
 3.42 1.00 -4.949 -4.969 -4.949 -4.914 -4.869  7.86064 13.44122-10.23003   0.040
 3.42 1.25 -4.881 -4.901 -4.881 -4.846 -4.800  8.06193 13.69273 -9.97853   0.050
 3.42 1.50 -4.794 -4.815 -4.794 -4.760 -4.714  8.26694 13.94522 -9.72607   0.063
 3.42 1.75 -4.691 -4.711 -4.691 -4.657 -4.612  8.47438 14.19963 -9.47166   0.080
 3.42 2.00 -4.575 -4.594 -4.575 -4.542 -4.498  8.68341 14.45652 -9.21474   0.102
 3.42 2.25 -4.449 -4.468 -4.449 -4.418 -4.377  8.89328 14.71783 -8.95346   0.130
 3.42 2.50 -4.320 -4.338 -4.320 -4.291 -4.252  9.10449 14.98349 -8.68782   0.165
 3.42 2.75 -4.196 -4.212 -4.196 -4.169 -4.133  9.31818 15.25551 -8.41580   0.211
 3.42 3.00 -4.077 -4.092 -4.077 -4.052 -4.019  9.53186 15.53007 -8.14122   0.271
 3.42 3.20 -3.989 -4.002 -3.989 -3.966 -3.936  9.70243 15.75144 -7.91982   0.330
 3.42 3.40 -3.906 -3.917 -3.906 -3.885 -3.857  9.87238 15.97282 -7.69841   0.401
 3.42 3.60 -3.828 -3.838 -3.828 -3.809 -3.784 10.04013 16.19329 -7.47794   0.486
 3.42 3.80 -3.754 -3.763 -3.754 -3.738 -3.716 10.20283 16.41156 -7.25971   0.586
 3.42 4.00 -3.687 -3.694 -3.687 -3.673 -3.652 10.36116 16.62808 -7.04326   0.703
 3.42 4.20 -3.627 -3.634 -3.627 -3.614 -3.595 10.51172 16.84172 -6.82958   0.836
 3.42 4.40 -3.572 -3.578 -3.572 -3.561 -3.543 10.65646 17.05332 -6.61793   0.988
 3.42 4.60 -3.523 -3.528 -3.523 -3.512 -3.495 10.79477 17.26288 -6.40833   1.158
 3.42 4.80 -3.478 -3.483 -3.478 -3.467 -3.451 10.92813 17.47080 -6.20040   1.351
 3.42 5.00 -3.434 -3.438 -3.434 -3.424 -3.408 11.05767 17.67724 -5.99396   1.568
 3.42 5.20 -3.391 -3.396 -3.391 -3.381 -3.367 11.18389 17.88239 -5.78887   1.813
 3.42 5.40 -3.347 -3.351 -3.347 -3.338 -3.323 11.30857 18.08661 -5.58469   2.093
 3.42 5.60 -3.300 -3.304 -3.300 -3.291 -3.277 11.43188 18.28994 -5.38133   2.412
 3.42 5.80 -3.249 -3.253 -3.249 -3.241 -3.228 11.55448 18.49268 -5.17855   2.777
 3.42 6.00 -3.195 -3.199 -3.195 -3.187 -3.175 11.67642 18.69487 -4.97634   3.196
 3.42 6.25 -3.121 -3.124 -3.121 -3.114 -3.102 11.82850 18.94703 -4.72430   3.808
 3.42 6.50 -3.041 -3.044 -3.041 -3.034 -3.024 11.97950 19.19866 -4.47276   4.531
 3.42 6.75 -2.957 -2.960 -2.957 -2.951 -2.942 12.12847 19.44982 -4.22153   5.378
 3.42 7.00 -2.871 -2.873 -2.871 -2.865 -2.856 12.27508 19.70070 -3.97062   6.367
 3.42 7.25 -2.783 -2.785 -2.783 -2.777 -2.770 12.41811 19.95141 -3.71999   7.507
 3.42 7.50 -2.695 -2.697 -2.695 -2.690 -2.683 12.55799 20.20194 -3.46954   8.819
 3.42 7.75 -2.608 -2.610 -2.608 -2.603 -2.597 12.69471 20.45231 -3.21920  10.323
 3.42 8.00 -2.522 -2.524 -2.522 -2.518 -2.513 12.82827 20.70252 -2.96900  12.039
 3.44-2.00 -4.634 -4.645 -4.634 -4.616 -4.592  5.87367 10.41929-13.25197   0.004
 3.44-1.50 -4.680 -4.692 -4.680 -4.659 -4.633  6.28937 10.91929-12.75203   0.006
 3.44-1.00 -4.738 -4.751 -4.738 -4.715 -4.685  6.67459 11.41930-12.25197   0.010
 3.44-0.50 -4.800 -4.815 -4.800 -4.774 -4.741  7.02938 11.91934-11.75203   0.015
 3.44 0.00 -4.851 -4.868 -4.851 -4.822 -4.784  7.36267 12.41946-11.25189   0.022
 3.44 0.50 -4.867 -4.886 -4.867 -4.834 -4.792  7.68833 12.91955-10.75178   0.032
 3.44 1.00 -4.819 -4.839 -4.819 -4.784 -4.738  8.02366 13.42012-10.25119   0.047
 3.44 1.25 -4.763 -4.784 -4.763 -4.728 -4.681  8.20096 13.67069-10.00058   0.058
 3.44 1.50 -4.687 -4.707 -4.687 -4.651 -4.604  8.38525 13.92163 -9.74958   0.071
 3.44 1.75 -4.587 -4.607 -4.587 -4.552 -4.505  8.57816 14.17347 -9.49777   0.088
 3.44 2.00 -4.469 -4.488 -4.469 -4.435 -4.390  8.77685 14.42651 -9.24481   0.111
 3.44 2.25 -4.334 -4.352 -4.334 -4.302 -4.259  8.98036 14.68177 -8.98955   0.140
 3.44 2.50 -4.190 -4.206 -4.190 -4.160 -4.120  9.18724 14.93987 -8.73142   0.178
 3.44 2.75 -4.042 -4.057 -4.042 -4.015 -3.978  9.39671 15.20299 -8.46834   0.227
 3.44 3.00 -3.896 -3.910 -3.896 -3.872 -3.839  9.60810 15.47056 -8.20080   0.289
 3.44 3.20 -3.787 -3.799 -3.787 -3.765 -3.735  9.77887 15.68936 -7.98191   0.352
 3.44 3.40 -3.683 -3.694 -3.683 -3.664 -3.637  9.94964 15.90921 -7.76202   0.428
