 ROSSELAND MASS ABSORPTION COEFFICIENTS [-2.0]
 logT logP  0km/s  1km/s  2km/s  4km/s  8km/s  log Ne   log Na  log rho IPloCM-1
 3.32-2.00 -6.104 -6.098 -6.087 -6.067 -6.040  3.56832 10.54033-13.13389   0.001
 3.32-1.50 -6.139 -6.133 -6.122 -6.102 -6.075  3.96619 11.04139-12.63302   0.001
 3.32-1.00 -6.150 -6.145 -6.133 -6.113 -6.086  4.40518 11.54419-12.13012   0.001
 3.32-0.50 -6.140 -6.134 -6.123 -6.102 -6.073  4.86445 12.05231-11.62178   0.001
 3.32 0.00 -6.114 -6.107 -6.096 -6.074 -6.045  5.32243 12.57380-11.10051   0.002
 3.32 0.50 -6.081 -6.075 -6.064 -6.043 -6.015  5.77327 13.11494-10.55941   0.004
 3.32 1.00 -6.050 -6.045 -6.035 -6.015 -5.990  6.21722 13.66829-10.00595   0.007
 3.32 1.25 -6.034 -6.029 -6.019 -6.002 -5.978  6.43647 13.94330 -9.73092   0.009
 3.32 1.50 -6.017 -6.012 -6.003 -5.986 -5.964  6.65495 14.21643 -9.45780   0.011
 3.32 1.75 -5.997 -5.993 -5.984 -5.968 -5.948  6.87324 14.48542 -9.18875   0.014
 3.32 2.00 -5.975 -5.971 -5.963 -5.948 -5.928  7.09061 14.75113 -8.92300   0.018
 3.32 2.25 -5.950 -5.946 -5.938 -5.924 -5.905  7.30299 15.01336 -8.66080   0.023
 3.32 2.50 -5.922 -5.919 -5.912 -5.898 -5.881  7.50947 15.27300 -8.40121   0.030
 3.32 2.75 -5.893 -5.889 -5.883 -5.871 -5.854  7.70402 15.53044 -8.14379   0.037
 3.32 3.00 -5.862 -5.859 -5.853 -5.842 -5.826  7.88880 15.78618 -7.88807   0.046
 3.32 3.20 -5.835 -5.832 -5.827 -5.817 -5.803  8.02842 15.98972 -7.68455   0.054
 3.32 3.40 -5.806 -5.804 -5.799 -5.790 -5.777  8.16355 16.19260 -7.48168   0.063
 3.32 3.60 -5.775 -5.773 -5.769 -5.761 -5.749  8.29373 16.39489 -7.27943   0.073
 3.32 3.80 -5.742 -5.740 -5.737 -5.730 -5.719  8.42146 16.59677 -7.07760   0.085
 3.32 4.00 -5.705 -5.704 -5.701 -5.695 -5.685  8.54802 16.79824 -6.87615   0.098
 3.32 4.20 -5.670 -5.668 -5.666 -5.660 -5.650  8.67371 16.99933 -6.67499   0.113
 3.32 4.40 -5.630 -5.628 -5.626 -5.620 -5.610  8.79940 17.20022 -6.47405   0.130
 3.32 4.60 -5.586 -5.584 -5.581 -5.576 -5.566  8.92604 17.40096 -6.27332   0.151
 3.32 4.80 -5.537 -5.535 -5.533 -5.527 -5.517  9.05450 17.60159 -6.07272   0.175
 3.32 5.00 -5.482 -5.481 -5.478 -5.472 -5.462  9.18412 17.80209 -5.87225   0.203
 3.32 5.20 -5.421 -5.420 -5.417 -5.412 -5.402  9.31565 18.00238 -5.67186   0.236
 3.32 5.40 -5.353 -5.352 -5.349 -5.343 -5.334  9.44719 18.20264 -5.47154   0.275
 3.32 5.60 -5.275 -5.274 -5.271 -5.265 -5.256  9.57818 18.40289 -5.27130   0.320
 3.32 5.80 -5.184 -5.183 -5.180 -5.175 -5.166  9.70746 18.60312 -5.07111   0.372
 3.32 6.00 -5.076 -5.075 -5.072 -5.067 -5.059  9.83518 18.80332 -4.87096   0.431
 3.32 6.25 -4.910 -4.908 -4.906 -4.901 -4.894  9.98928 19.05350 -4.62080   0.515
 3.32 6.50 -4.696 -4.695 -4.693 -4.689 -4.682 10.13862 19.30363 -4.37069   0.611
 3.32 6.75 -4.418 -4.418 -4.416 -4.413 -4.408 10.28270 19.55368 -4.12066   0.721
 3.32 7.00 -4.224 -4.223 -4.222 -4.219 -4.215 10.42275 19.80373 -3.87063   0.847
 3.32 7.25 -4.105 -4.104 -4.103 -4.101 -4.097 10.55931 20.05379 -3.62057   0.991
 3.32 7.50 -3.984 -3.983 -3.982 -3.979 -3.976 10.69311 20.30384 -3.37049   1.156
 3.32 7.75 -3.861 -3.860 -3.859 -3.857 -3.854 10.82487 20.55387 -3.12040   1.345
 3.32 8.00 -3.738 -3.738 -3.737 -3.735 -3.732 10.95434 20.80387 -2.87031   1.562
 3.34-2.00 -5.949 -5.943 -5.931 -5.911 -5.884  3.82053 10.51996-13.15428   0.001
 3.34-1.50 -6.006 -6.000 -5.989 -5.968 -5.940  4.15746 11.02036-12.65404   0.001
 3.34-1.00 -6.046 -6.040 -6.028 -6.006 -5.978  4.52179 11.52114-12.15311   0.001
 3.34-0.50 -6.053 -6.047 -6.035 -6.013 -5.984  4.92886 12.02366-11.65033   0.001
 3.34 0.00 -6.023 -6.017 -6.004 -5.982 -5.952  5.37328 12.53199-11.14231   0.002
 3.34 0.50 -5.971 -5.965 -5.953 -5.931 -5.903  5.83296 13.05269-10.62160   0.004
 3.34 1.00 -5.921 -5.915 -5.905 -5.885 -5.860  6.29070 13.59329-10.08092   0.007
 3.34 1.25 -5.900 -5.894 -5.884 -5.866 -5.842  6.51606 13.87002 -9.80430   0.009
 3.34 1.50 -5.880 -5.875 -5.865 -5.848 -5.825  6.73870 14.14675 -9.52768   0.012
 3.34 1.75 -5.859 -5.854 -5.845 -5.828 -5.807  6.95763 14.42190 -9.25257   0.016
 3.34 2.00 -5.837 -5.832 -5.823 -5.807 -5.786  7.17435 14.69522 -8.97922   0.020
 3.34 2.25 -5.811 -5.806 -5.798 -5.782 -5.762  7.38982 14.96434 -8.71000   0.025
 3.34 2.50 -5.781 -5.777 -5.769 -5.754 -5.734  7.60315 15.23019 -8.44406   0.032
 3.34 2.75 -5.746 -5.742 -5.735 -5.721 -5.702  7.81390 15.49267 -8.18168   0.041
 3.34 3.00 -5.708 -5.705 -5.698 -5.685 -5.668  8.02036 15.75251 -7.92191   0.052
 3.34 3.20 -5.676 -5.673 -5.667 -5.655 -5.639  8.17828 15.95863 -7.71572   0.062
 3.34 3.40 -5.643 -5.640 -5.635 -5.624 -5.609  8.33051 16.16366 -7.51063   0.074
 3.34 3.60 -5.609 -5.607 -5.602 -5.593 -5.579  8.47606 16.36765 -7.30658   0.088
 3.34 3.80 -5.575 -5.573 -5.569 -5.561 -5.548  8.61556 16.57094 -7.10328   0.104
 3.34 4.00 -5.539 -5.537 -5.534 -5.528 -5.517  8.75020 16.77357 -6.90067   0.121
 3.34 4.20 -5.508 -5.506 -5.503 -5.497 -5.486  8.87995 16.97567 -6.69864   0.140
 3.34 4.40 -5.474 -5.473 -5.470 -5.464 -5.453  9.00767 17.17737 -6.49699   0.162
 3.34 4.60 -5.439 -5.438 -5.435 -5.428 -5.418  9.13321 17.37867 -6.29571   0.187
 3.34 4.80 -5.401 -5.400 -5.397 -5.391 -5.381  9.25806 17.57972 -6.09465   0.216
 3.34 5.00 -5.361 -5.359 -5.356 -5.350 -5.340  9.38292 17.78053 -5.89381   0.250
 3.34 5.20 -5.317 -5.315 -5.313 -5.307 -5.297  9.50892 17.98119 -5.69313   0.289
 3.34 5.40 -5.269 -5.267 -5.265 -5.259 -5.249  9.63571 18.18172 -5.49257   0.335
 3.34 5.60 -5.216 -5.215 -5.212 -5.207 -5.197  9.76384 18.38215 -5.29211   0.388
 3.34 5.80 -5.160 -5.158 -5.156 -5.150 -5.141  9.89272 18.58250 -5.09173   0.449
 3.34 6.00 -5.099 -5.097 -5.095 -5.089 -5.080 10.02160 18.78276 -4.89144   0.521
 3.34 6.25 -5.017 -5.016 -5.013 -5.008 -4.999 10.18104 19.03292 -4.64122   0.626
 3.34 6.50 -4.931 -4.930 -4.928 -4.923 -4.915 10.33846 19.28308 -4.39105   0.751
 3.34 6.75 -4.843 -4.842 -4.839 -4.835 -4.827 10.49085 19.53328 -4.14089   0.895
 3.34 7.00 -4.753 -4.752 -4.750 -4.746 -4.739 10.63899 19.78348 -3.89076   1.061
 3.34 7.25 -4.664 -4.663 -4.661 -4.657 -4.650 10.78226 20.03350 -3.64074   1.252
 3.34 7.50 -4.575 -4.574 -4.572 -4.568 -4.562 10.92169 20.28353 -3.39073   1.470
 3.34 7.75 -4.487 -4.486 -4.484 -4.481 -4.476 11.05798 20.53359 -3.14061   1.720
 3.34 8.00 -4.400 -4.399 -4.398 -4.394 -4.390 11.19089 20.78369 -2.89042   2.004
 3.36-2.00 -5.790 -5.784 -5.773 -5.751 -5.724  4.08529 10.49996-13.17438   0.001
 3.36-1.50 -5.850 -5.844 -5.832 -5.810 -5.783  4.42045 10.99996-12.67428   0.001
 3.36-1.00 -5.904 -5.897 -5.885 -5.863 -5.835  4.74997 11.50024-12.17399   0.001
 3.36-0.50 -5.936 -5.930 -5.917 -5.895 -5.865  5.09237 12.00130-11.67305   0.002
 3.36 0.00 -5.931 -5.924 -5.912 -5.888 -5.859  5.46879 12.50406-11.17025   0.003
 3.36 0.50 -5.885 -5.878 -5.866 -5.844 -5.816  5.88925 13.01242-10.66194   0.004
 3.36 1.00 -5.819 -5.813 -5.803 -5.783 -5.757  6.34183 13.53339-10.14080   0.007
 3.36 1.25 -5.786 -5.780 -5.770 -5.751 -5.727  6.57247 13.80201 -9.87221   0.010
 3.36 1.50 -5.754 -5.748 -5.738 -5.720 -5.696  6.80312 14.07445 -9.59981   0.013
 3.36 1.75 -5.723 -5.717 -5.707 -5.689 -5.666  7.03067 14.35116 -9.32312   0.017
 3.36 2.00 -5.692 -5.686 -5.677 -5.659 -5.636  7.25527 14.62788 -9.04643   0.021
 3.36 2.25 -5.660 -5.655 -5.645 -5.628 -5.605  7.47479 14.90292 -8.77136   0.027
 3.36 2.50 -5.626 -5.621 -5.612 -5.595 -5.573  7.69082 15.17609 -8.49812   0.035
 3.36 2.75 -5.588 -5.584 -5.576 -5.560 -5.539  7.90397 15.44513 -8.22910   0.045
 3.36 3.00 -5.547 -5.543 -5.536 -5.522 -5.502  8.11428 15.71088 -7.96337   0.057
 3.36 3.20 -5.511 -5.507 -5.501 -5.488 -5.470  8.28121 15.92086 -7.75335   0.069
 3.36 3.40 -5.473 -5.470 -5.464 -5.452 -5.436  8.44567 16.12919 -7.54498   0.083
 3.36 3.60 -5.433 -5.431 -5.425 -5.416 -5.400  8.60661 16.33597 -7.33820   0.100
 3.36 3.80 -5.393 -5.390 -5.386 -5.378 -5.364  8.76210 16.54158 -7.13261   0.119
 3.36 4.00 -5.352 -5.350 -5.347 -5.340 -5.328  8.91259 16.74609 -6.92812   0.142
 3.36 4.20 -5.316 -5.314 -5.311 -5.304 -5.293  9.05580 16.94956 -6.72461   0.167
 3.36 4.40 -5.280 -5.278 -5.275 -5.268 -5.257  9.19402 17.15240 -6.52175   0.196
 3.36 4.60 -5.242 -5.241 -5.238 -5.231 -5.221  9.32683 17.35467 -6.31948   0.229
 3.36 4.80 -5.204 -5.203 -5.200 -5.194 -5.183  9.45613 17.55657 -6.11761   0.266
 3.36 5.00 -5.164 -5.162 -5.160 -5.153 -5.143  9.58297 17.75808 -5.91614   0.308
 3.36 5.20 -5.121 -5.120 -5.117 -5.111 -5.101  9.70738 17.95923 -5.71504   0.355
 3.36 5.40 -5.075 -5.073 -5.070 -5.064 -5.054  9.83178 18.16016 -5.51413   0.410
 3.36 5.60 -5.023 -5.022 -5.019 -5.013 -5.004  9.95629 18.36091 -5.31338   0.473
 3.36 5.80 -4.967 -4.966 -4.963 -4.957 -4.948 10.08113 18.56153 -5.11273   0.546
 3.36 6.00 -4.906 -4.904 -4.902 -4.896 -4.887 10.20629 18.76200 -4.91222   0.630
 3.36 6.25 -4.821 -4.820 -4.818 -4.812 -4.804 10.36437 19.01237 -4.66180   0.756
 3.36 6.50 -4.730 -4.729 -4.727 -4.722 -4.714 10.52244 19.26269 -4.41150   0.907
 3.36 6.75 -4.634 -4.633 -4.631 -4.626 -4.619 10.67895 19.51300 -4.16132   1.086
 3.36 7.00 -4.536 -4.535 -4.533 -4.528 -4.522 10.83359 19.76328 -3.91116   1.298
 3.36 7.25 -4.437 -4.436 -4.434 -4.430 -4.425 10.98376 20.01334 -3.66099   1.543
 3.36 7.50 -4.340 -4.339 -4.338 -4.334 -4.329 11.13001 20.26340 -3.41083   1.825
 3.36 7.75 -4.246 -4.245 -4.244 -4.240 -4.236 11.27197 20.51351 -3.16078   2.149
 3.36 8.00 -4.155 -4.154 -4.152 -4.149 -4.145 11.40976 20.76365 -2.91080   2.520
 3.38-2.00 -5.654 -5.647 -5.636 -5.614 -5.587  4.28937 10.47986-13.19443   0.001
 3.38-1.50 -5.702 -5.696 -5.684 -5.662 -5.635  4.66153 10.97987-12.69443   0.001
 3.38-1.00 -5.754 -5.747 -5.735 -5.712 -5.684  5.00732 11.48001-12.19430   0.002
 3.38-0.50 -5.796 -5.789 -5.776 -5.753 -5.724  5.33766 11.98028-11.69400   0.002
 3.38 0.00 -5.811 -5.804 -5.791 -5.768 -5.739  5.66913 12.48130-11.19301   0.003
 3.38 0.50 -5.788 -5.782 -5.770 -5.747 -5.719  6.02202 12.98430-10.68994   0.005
 3.38 1.00 -5.732 -5.726 -5.715 -5.694 -5.668  6.41614 13.49318-10.18118   0.008
 3.38 1.25 -5.694 -5.688 -5.677 -5.657 -5.633  6.63122 13.75227 -9.92208   0.010
 3.38 1.50 -5.652 -5.646 -5.635 -5.616 -5.591  6.85370 14.01536 -9.65896   0.013
 3.38 1.75 -5.606 -5.601 -5.590 -5.571 -5.547  7.08368 14.28468 -9.38962   0.017
 3.38 2.00 -5.560 -5.555 -5.544 -5.525 -5.501  7.31366 14.55763 -9.11668   0.022
 3.38 2.25 -5.514 -5.509 -5.499 -5.480 -5.456  7.54198 14.83445 -8.83994   0.029
 3.38 2.50 -5.469 -5.463 -5.454 -5.436 -5.413  7.76819 15.11126 -8.56320   0.037
 3.38 2.75 -5.423 -5.418 -5.409 -5.393 -5.371  7.98821 15.38608 -8.28832   0.048
 3.38 3.00 -5.376 -5.372 -5.364 -5.350 -5.329  8.20385 15.65877 -8.01547   0.061
 3.38 3.20 -5.337 -5.334 -5.327 -5.313 -5.294  8.37324 15.87386 -7.80042   0.074
 3.38 3.40 -5.297 -5.294 -5.288 -5.276 -5.259  8.54045 16.08685 -7.58745   0.091
 3.38 3.60 -5.255 -5.252 -5.247 -5.236 -5.221  8.70605 16.29765 -7.37661   0.110
 3.38 3.80 -5.210 -5.208 -5.203 -5.194 -5.181  8.86977 16.50660 -7.16757   0.132
 3.38 4.00 -5.164 -5.162 -5.158 -5.151 -5.138  9.03100 16.71391 -6.96019   0.159
 3.38 4.20 -5.121 -5.119 -5.115 -5.108 -5.097  9.18802 16.91977 -6.75443   0.191
 3.38 4.40 -5.076 -5.074 -5.071 -5.064 -5.053  9.34056 17.12458 -6.54969   0.227
 3.38 4.60 -5.032 -5.030 -5.027 -5.020 -5.010  9.48751 17.32842 -6.34584   0.270
 3.38 4.80 -4.987 -4.986 -4.983 -4.976 -4.966  9.62858 17.53157 -6.14262   0.317
 3.38 5.00 -4.942 -4.940 -4.937 -4.931 -4.921  9.76477 17.73408 -5.94006   0.371
 3.38 5.20 -4.896 -4.894 -4.891 -4.885 -4.875  9.89577 17.93605 -5.73818   0.431
 3.38 5.40 -4.847 -4.845 -4.843 -4.837 -4.827 10.02400 18.13764 -5.53667   0.499
 3.38 5.60 -4.795 -4.793 -4.790 -4.785 -4.775 10.14913 18.33888 -5.33547   0.577
 3.38 5.80 -4.738 -4.737 -4.734 -4.729 -4.720 10.27305 18.53988 -5.13448   0.665
 3.38 6.00 -4.678 -4.676 -4.674 -4.668 -4.660 10.39672 18.74068 -4.93367   0.767
 3.38 6.25 -4.595 -4.594 -4.591 -4.586 -4.578 10.55112 18.99146 -4.68288   0.916
 3.38 6.50 -4.505 -4.504 -4.502 -4.497 -4.490 10.70552 19.24205 -4.43227   1.094
 3.38 6.75 -4.409 -4.408 -4.406 -4.402 -4.395 10.86086 19.49247 -4.18179   1.308
 3.38 7.00 -4.308 -4.307 -4.306 -4.302 -4.296 11.01620 19.74280 -3.93144   1.565
 3.38 7.25 -4.206 -4.205 -4.203 -4.200 -4.194 11.16970 19.99308 -3.68127   1.867
 3.38 7.50 -4.104 -4.103 -4.102 -4.098 -4.093 11.32118 20.24329 -3.43109   2.223
 3.38 7.75 -4.005 -4.004 -4.002 -3.999 -3.995 11.46854 20.49343 -3.18090   2.634
 3.38 8.00 -3.909 -3.908 -3.907 -3.904 -3.900 11.61247 20.74351 -2.93070   3.109
 3.40-2.00 -5.549 -5.542 -5.530 -5.509 -5.482  4.41296 10.45984-13.21439   0.001
 3.40-1.50 -5.580 -5.573 -5.561 -5.539 -5.512  4.83078 10.95985-12.71444   0.001
 3.40-1.00 -5.618 -5.611 -5.599 -5.576 -5.549  5.21958 11.46000-12.21439   0.002
 3.40-0.50 -5.656 -5.649 -5.636 -5.613 -5.585  5.57830 11.96000-11.71422   0.003
 3.40 0.00 -5.678 -5.671 -5.658 -5.635 -5.606  5.91482 12.46045-11.21389   0.004
 3.40 0.50 -5.671 -5.664 -5.652 -5.629 -5.601  6.24279 12.96147-10.71287   0.006
 3.40 1.00 -5.629 -5.623 -5.611 -5.590 -5.564  6.58149 13.46494-10.20943   0.009
 3.40 1.25 -5.596 -5.590 -5.578 -5.558 -5.532  6.76223 13.71868 -9.95563   0.011
 3.40 1.50 -5.555 -5.549 -5.537 -5.517 -5.492  6.95260 13.97460 -9.69962   0.014
 3.40 1.75 -5.506 -5.500 -5.488 -5.468 -5.443  7.15693 14.23463 -9.43961   0.018
 3.40 2.00 -5.450 -5.444 -5.434 -5.414 -5.389  7.37125 14.49886 -9.17542   0.023
 3.40 2.25 -5.391 -5.385 -5.375 -5.356 -5.331  7.59763 14.76929 -8.90500   0.030
 3.40 2.50 -5.329 -5.324 -5.314 -5.297 -5.273  7.82439 15.04297 -8.63134   0.039
 3.40 2.75 -5.268 -5.264 -5.255 -5.238 -5.216  8.05134 15.31984 -8.35449   0.050
 3.40 3.00 -5.208 -5.204 -5.197 -5.182 -5.161  8.27830 15.59671 -8.07764   0.065
 3.40 3.20 -5.161 -5.157 -5.150 -5.137 -5.118  8.45454 15.81640 -7.85796   0.080
 3.40 3.40 -5.113 -5.110 -5.104 -5.092 -5.075  8.62776 16.03453 -7.63984   0.098
 3.40 3.60 -5.065 -5.062 -5.057 -5.046 -5.031  8.79775 16.25051 -7.42388   0.119
 3.40 3.80 -5.016 -5.013 -5.009 -5.000 -4.986  8.96484 16.46395 -7.21048   0.144
 3.40 4.00 -4.965 -4.963 -4.959 -4.951 -4.939  9.12937 16.67532 -6.99913   0.174
 3.40 4.20 -4.916 -4.914 -4.910 -4.903 -4.892  9.29224 16.88462 -6.78981   0.210
 3.40 4.40 -4.864 -4.863 -4.859 -4.852 -4.841  9.45241 17.09235 -6.58204   0.253
 3.40 4.60 -4.812 -4.810 -4.807 -4.801 -4.790  9.60970 17.29854 -6.37579   0.303
 3.40 4.80 -4.758 -4.757 -4.754 -4.748 -4.738  9.76306 17.50360 -6.17067   0.361
 3.40 5.00 -4.704 -4.703 -4.700 -4.694 -4.684  9.91233 17.70766 -5.96658   0.429
 3.40 5.20 -4.650 -4.649 -4.646 -4.640 -4.631 10.05533 17.91086 -5.76339   0.506
 3.40 5.40 -4.595 -4.594 -4.591 -4.586 -4.577 10.19363 18.11349 -5.56077   0.593
 3.40 5.60 -4.539 -4.538 -4.535 -4.530 -4.521 10.32682 18.31558 -5.35863   0.692
 3.40 5.80 -4.481 -4.480 -4.477 -4.472 -4.464 10.45623 18.51730 -5.15685   0.803
 3.40 6.00 -4.420 -4.419 -4.416 -4.411 -4.403 10.58274 18.71867 -4.95546   0.929
 3.40 6.25 -4.339 -4.338 -4.336 -4.331 -4.324 10.73739 18.96994 -4.70436   1.110
 3.40 6.50 -4.253 -4.252 -4.250 -4.246 -4.239 10.89087 19.22089 -4.45346   1.324
 3.40 6.75 -4.162 -4.161 -4.159 -4.155 -4.149 11.04356 19.47159 -4.20262   1.579
 3.40 7.00 -4.066 -4.065 -4.063 -4.060 -4.054 11.19618 19.72214 -3.95195   1.882
 3.40 7.25 -3.966 -3.965 -3.964 -3.960 -3.955 11.34879 19.97262 -3.70166   2.243
 3.40 7.50 -3.865 -3.864 -3.863 -3.860 -3.855 11.50133 20.22298 -3.45136   2.673
 3.40 7.75 -3.764 -3.763 -3.762 -3.759 -3.755 11.65144 20.47320 -3.20107   3.177
 3.40 8.00 -3.666 -3.665 -3.664 -3.661 -3.657 11.79989 20.72329 -2.95078   3.770
 3.42-2.00 -5.472 -5.465 -5.454 -5.432 -5.406  4.47159 10.43996-13.23433   0.001
 3.42-1.50 -5.487 -5.480 -5.468 -5.446 -5.419  4.92717 10.93992-12.73448   0.001
 3.42-1.00 -5.509 -5.502 -5.490 -5.467 -5.440  5.35774 11.43996-12.23433   0.002
 3.42-0.50 -5.533 -5.526 -5.513 -5.491 -5.462  5.76118 11.93997-11.73424   0.004
 3.42 0.00 -5.550 -5.543 -5.530 -5.507 -5.478  6.13354 12.44012-11.23418   0.005
 3.42 0.50 -5.545 -5.538 -5.525 -5.503 -5.475  6.47871 12.94052-10.73377   0.008
 3.42 1.00 -5.509 -5.502 -5.490 -5.468 -5.441  6.80828 13.44185-10.23240   0.012
 3.42 1.25 -5.478 -5.471 -5.459 -5.438 -5.411  6.97352 13.69333 -9.98088   0.014
 3.42 1.50 -5.439 -5.433 -5.421 -5.399 -5.373  7.13956 13.94576 -9.72839   0.017
 3.42 1.75 -5.392 -5.385 -5.374 -5.353 -5.327  7.31313 14.20019 -9.47402   0.021
 3.42 2.00 -5.337 -5.331 -5.320 -5.300 -5.274  7.49443 14.45713 -9.21717   0.026
 3.42 2.25 -5.275 -5.269 -5.259 -5.240 -5.215  7.68901 14.71841 -8.95585   0.032
 3.42 2.50 -5.206 -5.201 -5.192 -5.174 -5.150  7.89448 14.98403 -8.69016   0.041
 3.42 2.75 -5.132 -5.128 -5.119 -5.103 -5.081  8.11401 15.25601 -8.41817   0.053
 3.42 3.00 -5.056 -5.052 -5.045 -5.030 -5.010  8.33666 15.53058 -8.14363   0.068
 3.42 3.20 -4.995 -4.991 -4.984 -4.971 -4.953  8.51647 15.75204 -7.92227   0.084
 3.42 3.40 -4.934 -4.930 -4.924 -4.913 -4.896  8.69628 15.97349 -7.70092   0.104
 3.42 3.60 -4.873 -4.870 -4.865 -4.855 -4.840  8.87418 16.19399 -7.48046   0.127
 3.42 3.80 -4.813 -4.810 -4.806 -4.797 -4.783  9.04797 16.41218 -7.26221   0.155
 3.42 4.00 -4.752 -4.750 -4.746 -4.739 -4.727  9.21880 16.62859 -7.04571   0.189
 3.42 4.20 -4.695 -4.693 -4.690 -4.682 -4.671  9.38583 16.84226 -6.83207   0.229
 3.42 4.40 -4.637 -4.635 -4.632 -4.625 -4.615  9.55007 17.05390 -6.62046   0.276
 3.42 4.60 -4.578 -4.577 -4.574 -4.568 -4.558  9.71196 17.26347 -6.41091   0.333
 3.42 4.80 -4.519 -4.518 -4.515 -4.509 -4.500  9.87148 17.47137 -6.20299   0.400
 3.42 5.00 -4.458 -4.457 -4.454 -4.449 -4.440 10.02816 17.67779 -5.99654   0.479
 3.42 5.20 -4.397 -4.396 -4.394 -4.388 -4.379 10.18153 17.88294 -5.79135   0.572
 3.42 5.40 -4.335 -4.334 -4.332 -4.327 -4.318 10.33093 18.08717 -5.58710   0.679
 3.42 5.60 -4.273 -4.272 -4.270 -4.265 -4.257 10.47558 18.29051 -5.38373   0.802
 3.42 5.80 -4.210 -4.209 -4.207 -4.202 -4.195 10.61508 18.49324 -5.18098   0.942
 3.42 6.00 -4.147 -4.146 -4.144 -4.139 -4.132 10.75012 18.69539 -4.97881   1.100
 3.42 6.25 -4.066 -4.065 -4.063 -4.059 -4.052 10.91237 18.94738 -4.72677   1.326
 3.42 6.50 -3.982 -3.982 -3.980 -3.976 -3.970 11.07004 19.19893 -4.47522   1.590
 3.42 6.75 -3.896 -3.895 -3.893 -3.890 -3.884 11.22374 19.45024 -4.22398   1.898
 3.42 7.00 -3.806 -3.805 -3.804 -3.800 -3.795 11.37585 19.70122 -3.97306   2.261
 3.42 7.25 -3.713 -3.712 -3.711 -3.707 -3.703 11.52707 19.95176 -3.72243   2.691
 3.42 7.50 -3.617 -3.616 -3.615 -3.612 -3.608 11.67752 20.20222 -3.47198   3.200
 3.42 7.75 -3.520 -3.519 -3.518 -3.515 -3.511 11.82743 20.45265 -3.22164   3.803
 3.42 8.00 -3.424 -3.423 -3.422 -3.419 -3.415 11.97672 20.70303 -2.97143   4.516
 3.44-2.00 -5.422 -5.416 -5.404 -5.383 -5.358  4.47972 10.41996-13.25438   0.001
 3.44-1.50 -5.421 -5.415 -5.403 -5.381 -5.354  4.96492 10.91991-12.75449   0.001
 3.44-1.00 -5.427 -5.420 -5.408 -5.385 -5.358  5.43201 11.41996-12.25438   0.002
 3.44-0.50 -5.436 -5.429 -5.416 -5.394 -5.366  5.87419 11.91991-11.75424   0.004
 3.44 0.00 -5.440 -5.433 -5.420 -5.397 -5.369  6.28981 12.41996-11.25430   0.006
 3.44 0.50 -5.427 -5.420 -5.407 -5.384 -5.356  6.67523 12.92012-10.75424   0.010
 3.44 1.00 -5.385 -5.379 -5.366 -5.344 -5.316  7.03060 13.42062-10.25360   0.015
 3.44 1.25 -5.352 -5.345 -5.333 -5.311 -5.284  7.19862 13.67121-10.00299   0.018
 3.44 1.50 -5.311 -5.304 -5.292 -5.270 -5.244  7.36455 13.92221 -9.75203   0.022
 3.44 1.75 -5.261 -5.255 -5.243 -5.223 -5.197  7.52892 14.17402 -9.50020   0.027
 3.44 2.00 -5.205 -5.199 -5.188 -5.168 -5.143  7.69329 14.42700 -9.24718   0.032
 3.44 2.25 -5.141 -5.136 -5.126 -5.107 -5.083  7.86272 14.68229 -8.99190   0.039
 3.44 2.50 -5.071 -5.066 -5.057 -5.040 -5.017  8.03783 14.94047 -8.73377   0.047
 3.44 2.75 -4.993 -4.989 -4.981 -4.965 -4.944  8.22494 15.20357 -8.47073   0.059
 3.44 3.00 -4.909 -4.905 -4.898 -4.884 -4.865  8.42259 15.47114 -8.20322   0.074
 3.44 3.20 -4.837 -4.834 -4.828 -4.815 -4.798  8.59183 15.69014 -7.98428   0.090
 3.44 3.40 -4.764 -4.760 -4.755 -4.744 -4.728  8.76420 15.91006 -7.76436   0.109
