 ROSSELAND MASS ABSORPTION COEFFICIENTS [-4.5]
 logT logP  0km/s  1km/s  2km/s  4km/s  8km/s  log Ne   log Na  log rho IPloCM-1
 3.32-2.00 -6.758 -6.756 -6.752 -6.745 -6.734  1.82692 10.54033-13.13395   0.001
 3.32-1.50 -6.778 -6.776 -6.772 -6.765 -6.755  2.19893 11.04139-12.63302   0.001
 3.32-1.00 -6.782 -6.780 -6.777 -6.770 -6.760  2.54728 11.54419-12.13024   0.001
 3.32-0.50 -6.764 -6.762 -6.758 -6.751 -6.740  2.88491 12.05231-11.62197   0.001
 3.32 0.00 -6.735 -6.733 -6.729 -6.721 -6.709  3.23426 12.57380-11.10062   0.001
 3.32 0.50 -6.713 -6.711 -6.706 -6.697 -6.684  3.62490 13.11494-10.55956   0.001
 3.32 1.00 -6.695 -6.692 -6.687 -6.677 -6.663  4.07445 13.66829-10.00603   0.001
 3.32 1.25 -6.681 -6.679 -6.674 -6.664 -6.649  4.31772 13.94330 -9.73096   0.001
 3.32 1.50 -6.664 -6.661 -6.656 -6.646 -6.631  4.56098 14.21643 -9.45780   0.001
 3.32 1.75 -6.641 -6.638 -6.633 -6.624 -6.608  4.80260 14.48542 -9.18895   0.001
 3.32 2.00 -6.615 -6.612 -6.607 -6.598 -6.583  5.04179 14.75113 -8.92336   0.002
 3.32 2.25 -6.584 -6.582 -6.578 -6.569 -6.554  5.27020 15.01336 -8.66105   0.002
 3.32 2.50 -6.551 -6.550 -6.546 -6.537 -6.524  5.49108 15.27300 -8.40132   0.003
 3.32 2.75 -6.516 -6.514 -6.511 -6.503 -6.491  5.70382 15.53044 -8.14382   0.004
 3.32 3.00 -6.477 -6.476 -6.473 -6.467 -6.456  5.91148 15.78618 -7.88807   0.005
 3.32 3.20 -6.445 -6.443 -6.441 -6.435 -6.426  6.07351 15.98972 -7.68460   0.006
 3.32 3.40 -6.410 -6.409 -6.407 -6.402 -6.394  6.23534 16.19260 -7.48177   0.007
 3.32 3.60 -6.376 -6.375 -6.374 -6.369 -6.362  6.39699 16.39489 -7.27951   0.008
 3.32 3.80 -6.342 -6.342 -6.340 -6.336 -6.329  6.55862 16.59677 -7.07764   0.010
 3.32 4.00 -6.307 -6.306 -6.305 -6.301 -6.294  6.72024 16.79824 -6.87615   0.012
 3.32 4.20 -6.273 -6.272 -6.270 -6.267 -6.260  6.88441 16.99933 -6.67499   0.014
 3.32 4.40 -6.237 -6.237 -6.235 -6.232 -6.225  7.04857 17.20022 -6.47405   0.017
 3.32 4.60 -6.202 -6.201 -6.200 -6.196 -6.190  7.21199 17.40096 -6.27331   0.021
 3.32 4.80 -6.166 -6.166 -6.164 -6.161 -6.154  7.37286 17.60159 -6.07271   0.025
 3.32 5.00 -6.130 -6.129 -6.128 -6.125 -6.119  7.53135 17.80209 -5.87225   0.030
 3.32 5.20 -6.093 -6.092 -6.091 -6.088 -6.082  7.68272 18.00238 -5.67192   0.036
 3.32 5.40 -6.054 -6.053 -6.052 -6.049 -6.043  7.82884 18.20264 -5.47163   0.042
 3.32 5.60 -6.010 -6.010 -6.008 -6.005 -6.000  7.96892 18.40289 -5.27138   0.050
 3.32 5.80 -5.961 -5.961 -5.960 -5.957 -5.951  8.10395 18.60312 -5.07115   0.058
 3.32 6.00 -5.905 -5.905 -5.903 -5.900 -5.895  8.23502 18.80332 -4.87096   0.068
 3.32 6.25 -5.821 -5.821 -5.820 -5.817 -5.811  8.39344 19.05350 -4.62087   0.082
 3.32 6.50 -5.720 -5.719 -5.718 -5.715 -5.710  8.55060 19.30363 -4.37080   0.098
 3.32 6.75 -5.598 -5.597 -5.596 -5.594 -5.589  8.70693 19.55368 -4.12071   0.118
 3.32 7.00 -5.490 -5.489 -5.488 -5.486 -5.482  8.86326 19.80373 -3.87063   0.141
 3.32 7.25 -5.395 -5.395 -5.394 -5.392 -5.389  9.02261 20.05379 -3.62060   0.169
 3.32 7.50 -5.297 -5.297 -5.296 -5.295 -5.293  9.18384 20.30384 -3.37059   0.203
 3.32 7.75 -5.198 -5.198 -5.197 -5.196 -5.195  9.34683 20.55387 -3.12060   0.245
 3.32 8.00 -5.099 -5.099 -5.099 -5.098 -5.097  9.51162 20.80387 -2.87063   0.297
 3.34-2.00 -6.653 -6.651 -6.646 -6.638 -6.626  1.96937 10.51996-13.15441   0.001
 3.34-1.50 -6.660 -6.658 -6.653 -6.645 -6.633  2.39094 11.02036-12.65404   0.001
 3.34-1.00 -6.656 -6.653 -6.649 -6.640 -6.628  2.78554 11.52114-12.15323   0.001
 3.34-0.50 -6.635 -6.633 -6.628 -6.619 -6.606  3.15198 12.02366-11.65053   0.001
 3.34 0.00 -6.606 -6.604 -6.598 -6.589 -6.575  3.49831 12.53199-11.14237   0.001
 3.34 0.50 -6.580 -6.577 -6.571 -6.560 -6.545  3.84223 13.05269-10.62160   0.001
 3.34 1.00 -6.557 -6.554 -6.548 -6.537 -6.521  4.20871 13.59329-10.08103   0.001
 3.34 1.25 -6.545 -6.542 -6.536 -6.525 -6.508  4.40868 13.87002 -9.80435   0.001
 3.34 1.50 -6.530 -6.527 -6.521 -6.509 -6.492  4.61993 14.14675 -9.52768   0.001
 3.34 1.75 -6.509 -6.506 -6.501 -6.489 -6.471  4.84529 14.42190 -9.25256   0.001
 3.34 2.00 -6.483 -6.481 -6.475 -6.464 -6.446  5.07664 14.69522 -8.97922   0.002
 3.34 2.25 -6.452 -6.449 -6.444 -6.433 -6.416  5.31313 14.96434 -8.71007   0.002
 3.34 2.50 -6.416 -6.414 -6.409 -6.400 -6.384  5.54962 15.23019 -8.44418   0.003
 3.34 2.75 -6.378 -6.376 -6.372 -6.364 -6.349  5.77972 15.49267 -8.18173   0.004
 3.34 3.00 -6.339 -6.338 -6.334 -6.327 -6.314  6.00432 15.75251 -7.92191   0.005
 3.34 3.20 -6.307 -6.306 -6.303 -6.297 -6.286  6.17790 15.95863 -7.71578   0.006
 3.34 3.40 -6.276 -6.275 -6.272 -6.267 -6.258  6.34780 16.16366 -7.51073   0.007
 3.34 3.60 -6.246 -6.245 -6.243 -6.239 -6.231  6.51364 16.36765 -7.30666   0.009
 3.34 3.80 -6.219 -6.218 -6.216 -6.212 -6.204  6.67697 16.57094 -7.10331   0.011
 3.34 4.00 -6.191 -6.190 -6.189 -6.185 -6.178  6.83866 16.77357 -6.90066   0.013
 3.34 4.20 -6.165 -6.165 -6.163 -6.160 -6.153  6.99882 16.97567 -6.69870   0.016
 3.34 4.40 -6.139 -6.139 -6.137 -6.134 -6.127  7.15897 17.17737 -6.49709   0.019
 3.34 4.60 -6.112 -6.112 -6.110 -6.107 -6.100  7.31975 17.37867 -6.29579   0.023
 3.34 4.80 -6.084 -6.084 -6.082 -6.079 -6.073  7.48116 17.57972 -6.09469   0.028
 3.34 5.00 -6.055 -6.055 -6.053 -6.050 -6.044  7.64256 17.78053 -5.89381   0.034
 3.34 5.20 -6.024 -6.024 -6.022 -6.019 -6.013  7.80323 17.98119 -5.69319   0.041
 3.34 5.40 -5.992 -5.991 -5.990 -5.987 -5.981  7.96280 18.18172 -5.49267   0.049
 3.34 5.60 -5.957 -5.957 -5.956 -5.952 -5.947  8.11923 18.38215 -5.29220   0.058
 3.34 5.80 -5.922 -5.921 -5.920 -5.917 -5.911  8.26979 18.58250 -5.09178   0.069
 3.34 6.00 -5.884 -5.883 -5.882 -5.879 -5.874  8.41564 18.78276 -4.89144   0.082
 3.34 6.25 -5.835 -5.835 -5.834 -5.830 -5.825  8.58886 19.03292 -4.64129   0.100
 3.34 6.50 -5.785 -5.784 -5.783 -5.780 -5.775  8.75534 19.28308 -4.39115   0.121
 3.34 6.75 -5.732 -5.732 -5.731 -5.728 -5.722  8.91528 19.53328 -4.14096   0.146
 3.34 7.00 -5.678 -5.677 -5.676 -5.673 -5.668  9.07262 19.78348 -3.89076   0.175
 3.34 7.25 -5.620 -5.620 -5.619 -5.616 -5.611  9.22786 20.03350 -3.64073   0.209
 3.34 7.50 -5.560 -5.559 -5.558 -5.556 -5.551  9.38310 20.28353 -3.39073   0.250
 3.34 7.75 -5.496 -5.495 -5.494 -5.492 -5.488  9.53990 20.53359 -3.14073   0.299
 3.34 8.00 -5.427 -5.427 -5.426 -5.424 -5.421  9.69775 20.78369 -2.89076   0.359
 3.36-2.00 -6.572 -6.570 -6.565 -6.555 -6.542  2.03543 10.49996-13.17444   0.001
 3.36-1.50 -6.570 -6.567 -6.562 -6.552 -6.539  2.49499 10.99996-12.67448   0.001
 3.36-1.00 -6.557 -6.554 -6.549 -6.539 -6.525  2.93237 11.50024-12.17406   0.001
 3.36-0.50 -6.531 -6.528 -6.523 -6.512 -6.497  3.34655 12.00130-11.67325   0.001
 3.36 0.00 -6.496 -6.493 -6.487 -6.476 -6.460  3.73264 12.50406-11.17031   0.001
 3.36 0.50 -6.455 -6.452 -6.445 -6.433 -6.415  4.09377 13.01242-10.66214   0.001
 3.36 1.00 -6.411 -6.407 -6.400 -6.386 -6.367  4.44264 13.53339-10.14092   0.001
 3.36 1.25 -6.389 -6.386 -6.379 -6.365 -6.344  4.61956 13.80201 -9.87237   0.001
 3.36 1.50 -6.370 -6.366 -6.359 -6.345 -6.324  4.79962 14.07445 -9.59998   0.001
 3.36 1.75 -6.351 -6.347 -6.340 -6.326 -6.305  4.98797 14.35116 -9.32323   0.001
 3.36 2.00 -6.330 -6.327 -6.320 -6.307 -6.286  5.18441 14.62788 -9.04648   0.002
 3.36 2.25 -6.305 -6.302 -6.296 -6.284 -6.265  5.39191 14.90292 -8.77142   0.002
 3.36 2.50 -6.276 -6.274 -6.269 -6.258 -6.240  5.60788 15.17609 -8.49826   0.003
 3.36 2.75 -6.243 -6.241 -6.236 -6.227 -6.211  5.83467 15.44513 -8.22917   0.004
 3.36 3.00 -6.207 -6.205 -6.202 -6.194 -6.180  6.06145 15.71088 -7.96337   0.005
 3.36 3.20 -6.177 -6.176 -6.173 -6.166 -6.155  6.24266 15.92086 -7.75338   0.006
 3.36 3.40 -6.148 -6.147 -6.145 -6.139 -6.129  6.42348 16.12919 -7.54506   0.008
 3.36 3.60 -6.122 -6.121 -6.119 -6.114 -6.106  6.60155 16.33597 -7.33840   0.010
 3.36 3.80 -6.098 -6.097 -6.095 -6.091 -6.083  6.77461 16.54158 -7.13292   0.012
 3.36 4.00 -6.074 -6.073 -6.072 -6.068 -6.061  6.94429 16.74609 -6.92849   0.015
 3.36 4.20 -6.053 -6.053 -6.051 -6.047 -6.041  7.11000 16.94956 -6.72488   0.018
 3.36 4.40 -6.032 -6.031 -6.030 -6.026 -6.020  7.27344 17.15240 -6.52191   0.022
 3.36 4.60 -6.010 -6.009 -6.008 -6.004 -5.998  7.43426 17.35467 -6.31956   0.026
 3.36 4.80 -5.986 -5.985 -5.984 -5.981 -5.975  7.59397 17.55657 -6.11764   0.031
 3.36 5.00 -5.960 -5.960 -5.958 -5.955 -5.949  7.75343 17.75808 -5.91614   0.037
 3.36 5.20 -5.932 -5.932 -5.930 -5.927 -5.921  7.91288 17.95923 -5.71504   0.045
 3.36 5.40 -5.901 -5.901 -5.899 -5.896 -5.890  8.07213 18.16016 -5.51413   0.054
 3.36 5.60 -5.867 -5.866 -5.865 -5.862 -5.856  8.23120 18.36091 -5.31337   0.065
 3.36 5.80 -5.829 -5.828 -5.827 -5.824 -5.818  8.38975 18.56153 -5.11272   0.078
 3.36 6.00 -5.788 -5.787 -5.786 -5.783 -5.777  8.54765 18.76200 -4.91222   0.093
 3.36 6.25 -5.733 -5.733 -5.731 -5.728 -5.723  8.73834 19.01237 -4.66189   0.116
 3.36 6.50 -5.676 -5.675 -5.674 -5.671 -5.666  8.92267 19.26269 -4.41162   0.144
 3.36 6.75 -5.617 -5.616 -5.615 -5.612 -5.607  9.09759 19.51300 -4.16136   0.176
 3.36 7.00 -5.557 -5.556 -5.555 -5.552 -5.548  9.26553 19.76328 -3.91116   0.213
 3.36 7.25 -5.495 -5.495 -5.494 -5.491 -5.487  9.42640 20.01334 -3.66104   0.257
 3.36 7.50 -5.432 -5.431 -5.430 -5.428 -5.424  9.58377 20.26340 -3.41094   0.308
 3.36 7.75 -5.366 -5.365 -5.364 -5.363 -5.360  9.73919 20.51351 -3.16086   0.368
 3.36 8.00 -5.296 -5.296 -5.295 -5.294 -5.291  9.89215 20.76365 -2.91080   0.439
 3.38-2.00 -6.508 -6.505 -6.500 -6.490 -6.477  2.04883 10.47986-13.19450   0.001
 3.38-1.50 -6.499 -6.496 -6.490 -6.480 -6.466  2.53326 10.97987-12.69443   0.001
 3.38-1.00 -6.479 -6.475 -6.470 -6.459 -6.444  3.00647 11.48001-12.19436   0.001
 3.38-0.50 -6.447 -6.443 -6.437 -6.425 -6.409  3.45834 11.98028-11.69400   0.001
 3.38 0.00 -6.404 -6.400 -6.394 -6.381 -6.363  3.88795 12.48130-11.19308   0.001
 3.38 0.50 -6.347 -6.343 -6.336 -6.321 -6.301  4.29270 12.98430-10.69016   0.001
 3.38 1.00 -6.279 -6.275 -6.267 -6.251 -6.228  4.67099 13.49318-10.18125   0.001
 3.38 1.25 -6.245 -6.240 -6.232 -6.216 -6.192  4.85156 13.75227 -9.92211   0.001
 3.38 1.50 -6.213 -6.209 -6.201 -6.184 -6.160  5.03100 14.01536 -9.65896   0.002
 3.38 1.75 -6.184 -6.180 -6.172 -6.156 -6.132  5.20973 14.28468 -9.38965   0.002
 3.38 2.00 -6.160 -6.156 -6.149 -6.134 -6.111  5.38846 14.55763 -9.11674   0.002
 3.38 2.25 -6.137 -6.134 -6.127 -6.114 -6.092  5.57123 14.83445 -8.83997   0.003
 3.38 2.50 -6.115 -6.113 -6.107 -6.095 -6.076  5.75815 15.11126 -8.56320   0.004
 3.38 2.75 -6.093 -6.091 -6.086 -6.076 -6.060  5.95242 15.38608 -8.28835   0.005
 3.38 3.00 -6.069 -6.067 -6.063 -6.055 -6.042  6.15382 15.65877 -8.01556   0.006
 3.38 3.20 -6.048 -6.046 -6.043 -6.037 -6.025  6.32231 15.87386 -7.80052   0.007
 3.38 3.40 -6.026 -6.025 -6.022 -6.017 -6.007  6.49400 16.08685 -7.58757   0.008
 3.38 3.60 -6.005 -6.004 -6.002 -5.998 -5.989  6.66940 16.29765 -7.37682   0.010
 3.38 3.80 -5.985 -5.984 -5.983 -5.978 -5.971  6.84612 16.50660 -7.16790   0.013
 3.38 4.00 -5.964 -5.964 -5.962 -5.958 -5.952  7.02284 16.71391 -6.96059   0.016
 3.38 4.20 -5.945 -5.945 -5.943 -5.940 -5.933  7.19658 16.91977 -6.75462   0.019
 3.38 4.40 -5.926 -5.925 -5.924 -5.920 -5.914  7.36801 17.12458 -6.54974   0.024
 3.38 4.60 -5.904 -5.904 -5.902 -5.899 -5.893  7.53634 17.32842 -6.34594   0.029
 3.38 4.80 -5.882 -5.881 -5.880 -5.876 -5.870  7.70151 17.53157 -6.14289   0.035
 3.38 5.00 -5.857 -5.856 -5.855 -5.852 -5.846  7.86427 17.73408 -5.94044   0.042
 3.38 5.20 -5.830 -5.829 -5.828 -5.824 -5.819  8.02463 17.93605 -5.73840   0.050
 3.38 5.40 -5.800 -5.799 -5.798 -5.794 -5.789  8.18392 18.13764 -5.53673   0.060
 3.38 5.60 -5.767 -5.766 -5.765 -5.761 -5.755  8.34231 18.33888 -5.33546   0.072
 3.38 5.80 -5.730 -5.729 -5.728 -5.725 -5.719  8.50019 18.53988 -5.13445   0.087
 3.38 6.00 -5.690 -5.689 -5.688 -5.684 -5.679  8.65753 18.74068 -4.93367   0.104
 3.38 6.25 -5.634 -5.633 -5.632 -5.629 -5.623  8.85396 18.99146 -4.68297   0.130
 3.38 6.50 -5.573 -5.572 -5.571 -5.568 -5.563  9.04922 19.24205 -4.43239   0.163
 3.38 6.75 -5.508 -5.508 -5.506 -5.503 -5.499  9.23902 19.49247 -4.18186   0.203
 3.38 7.00 -5.440 -5.440 -5.439 -5.436 -5.432  9.42325 19.74280 -3.93144   0.250
 3.38 7.25 -5.371 -5.370 -5.369 -5.367 -5.363  9.59858 19.99308 -3.68127   0.306
 3.38 7.50 -5.299 -5.299 -5.298 -5.296 -5.293  9.76701 20.24329 -3.43109   0.371
 3.38 7.75 -5.226 -5.226 -5.225 -5.224 -5.222  9.92933 20.49343 -3.18090   0.447
 3.38 8.00 -5.152 -5.151 -5.151 -5.150 -5.148 10.08529 20.74351 -2.93070   0.536
 3.40-2.00 -6.425 -6.422 -6.417 -6.407 -6.394  2.13672 10.45984-13.21446   0.001
 3.40-1.50 -6.430 -6.427 -6.422 -6.411 -6.397  2.56844 10.95985-12.71444   0.001
 3.40-1.00 -6.413 -6.409 -6.403 -6.392 -6.377  3.03423 11.46000-12.21446   0.001
 3.40-0.50 -6.377 -6.373 -6.366 -6.354 -6.337  3.50907 11.96000-11.71444   0.001
 3.40 0.00 -6.327 -6.323 -6.315 -6.301 -6.282  3.97253 12.46045-11.21396   0.001
 3.40 0.50 -6.258 -6.254 -6.246 -6.230 -6.207  4.41497 12.96147-10.71287   0.001
 3.40 1.00 -6.173 -6.169 -6.160 -6.142 -6.116  4.83518 13.46494-10.20950   0.001
 3.40 1.25 -6.128 -6.124 -6.114 -6.096 -6.070  5.03578 13.71868 -9.95577   0.001
 3.40 1.50 -6.085 -6.080 -6.072 -6.053 -6.027  5.23070 13.97460 -9.69984   0.002
 3.40 1.75 -6.044 -6.040 -6.032 -6.014 -5.989  5.41971 14.23463 -9.43976   0.002
 3.40 2.00 -6.008 -6.005 -5.997 -5.982 -5.958  5.60520 14.49886 -9.17548   0.003
 3.40 2.25 -5.978 -5.975 -5.968 -5.955 -5.934  5.78727 14.76929 -8.90515   0.004
 3.40 2.50 -5.954 -5.951 -5.946 -5.934 -5.916  5.96914 15.04297 -8.63153   0.005
 3.40 2.75 -5.934 -5.932 -5.928 -5.918 -5.903  6.15089 15.31984 -8.35461   0.006
 3.40 3.00 -5.918 -5.916 -5.912 -5.905 -5.892  6.33264 15.59671 -8.07769   0.007
 3.40 3.20 -5.905 -5.904 -5.901 -5.894 -5.884  6.48082 15.81640 -7.85803   0.008
 3.40 3.40 -5.892 -5.891 -5.889 -5.883 -5.874  6.63162 16.03453 -7.63995   0.010
 3.40 3.60 -5.880 -5.879 -5.876 -5.872 -5.864  6.78634 16.25051 -7.42400   0.012
 3.40 3.80 -5.866 -5.865 -5.863 -5.859 -5.852  6.94599 16.46395 -7.21053   0.014
 3.40 4.00 -5.850 -5.850 -5.848 -5.844 -5.838  7.10958 16.67532 -6.99913   0.017
 3.40 4.20 -5.835 -5.834 -5.832 -5.829 -5.823  7.27951 16.88462 -6.78987   0.021
 3.40 4.40 -5.816 -5.815 -5.814 -5.811 -5.804  7.44944 17.09235 -6.58215   0.025
 3.40 4.60 -5.795 -5.795 -5.793 -5.790 -5.784  7.61935 17.29854 -6.37588   0.031
 3.40 4.80 -5.772 -5.771 -5.770 -5.767 -5.761  7.78911 17.50360 -6.17071   0.037
 3.40 5.00 -5.747 -5.746 -5.745 -5.741 -5.735  7.95871 17.70766 -5.96658   0.045
 3.40 5.20 -5.719 -5.718 -5.717 -5.713 -5.707  8.12439 17.91086 -5.76342   0.055
 3.40 5.40 -5.689 -5.688 -5.686 -5.683 -5.677  8.28800 18.11349 -5.56085   0.066
 3.40 5.60 -5.655 -5.655 -5.653 -5.650 -5.644  8.44937 18.31558 -5.35885   0.080
 3.40 5.80 -5.619 -5.619 -5.617 -5.614 -5.608  8.60902 18.51730 -5.15719   0.096
 3.40 6.00 -5.580 -5.579 -5.578 -5.575 -5.569  8.76730 18.71867 -4.95585   0.115
 3.40 6.25 -5.526 -5.525 -5.524 -5.521 -5.515  8.96381 18.96994 -4.70448   0.144
 3.40 6.50 -5.466 -5.465 -5.464 -5.461 -5.456  9.15897 19.22089 -4.45346   0.180
 3.40 6.75 -5.399 -5.399 -5.398 -5.395 -5.391  9.35340 19.47159 -4.20284   0.225
 3.40 7.00 -5.327 -5.326 -5.325 -5.323 -5.319  9.54605 19.72214 -3.95234   0.281
 3.40 7.25 -5.249 -5.249 -5.248 -5.246 -5.243  9.73418 19.97262 -3.70187   0.349
 3.40 7.50 -5.167 -5.167 -5.166 -5.165 -5.162  9.91719 20.22298 -3.45149   0.432
 3.40 7.75 -5.083 -5.083 -5.082 -5.081 -5.080 10.09198 20.47320 -3.20126   0.528
 3.40 8.00 -4.998 -4.998 -4.997 -4.997 -4.995 10.25959 20.72329 -2.95117   0.640
 3.42-2.00 -6.259 -6.257 -6.253 -6.245 -6.233  2.51162 10.43996-13.23441   0.001
 3.42-1.50 -6.303 -6.301 -6.296 -6.286 -6.272  2.82295 10.93992-12.73448   0.001
 3.42-1.00 -6.320 -6.317 -6.311 -6.300 -6.285  3.17493 11.43996-12.23441   0.001
 3.42-0.50 -6.304 -6.300 -6.294 -6.281 -6.264  3.57749 11.93997-11.73448   0.001
 3.42 0.00 -6.258 -6.254 -6.247 -6.232 -6.212  4.02243 12.44012-11.23426   0.001
 3.42 0.50 -6.185 -6.180 -6.171 -6.154 -6.130  4.48230 12.94052-10.73377   0.001
 3.42 1.00 -6.089 -6.085 -6.075 -6.056 -6.029  4.93268 13.44185-10.23255   0.001
 3.42 1.25 -6.038 -6.033 -6.024 -6.004 -5.977  5.15089 13.69333 -9.98108   0.001
 3.42 1.50 -5.988 -5.983 -5.974 -5.955 -5.927  5.36418 13.94576 -9.72862   0.002
 3.42 1.75 -5.938 -5.934 -5.925 -5.908 -5.882  5.57220 14.20019 -9.47419   0.003
 3.42 2.00 -5.892 -5.888 -5.881 -5.866 -5.842  5.77503 14.45713 -9.21724   0.004
 3.42 2.25 -5.851 -5.848 -5.842 -5.829 -5.809  5.97225 14.71841 -8.95598   0.005
 3.42 2.50 -5.817 -5.814 -5.809 -5.799 -5.782  6.16495 14.98403 -8.69037   0.006
 3.42 2.75 -5.790 -5.788 -5.784 -5.775 -5.761  6.35362 15.25601 -8.41834   0.007
 3.42 3.00 -5.769 -5.767 -5.764 -5.757 -5.746  6.53895 15.53058 -8.14375   0.009
 3.42 3.20 -5.756 -5.754 -5.751 -5.746 -5.736  6.68393 15.75204 -7.92235   0.010
 3.42 3.40 -5.744 -5.743 -5.741 -5.736 -5.727  6.82891 15.97349 -7.70094   0.012
 3.42 3.60 -5.734 -5.733 -5.731 -5.727 -5.719  6.97391 16.19399 -7.48047   0.014
 3.42 3.80 -5.724 -5.723 -5.722 -5.718 -5.711  7.11897 16.41218 -7.26225   0.017
 3.42 4.00 -5.713 -5.712 -5.711 -5.707 -5.701  7.26411 16.62859 -7.04581   0.020
 3.42 4.20 -5.701 -5.701 -5.699 -5.696 -5.690  7.41370 16.84226 -6.83213   0.024
 3.42 4.40 -5.687 -5.687 -5.685 -5.682 -5.676  7.56658 17.05390 -6.62048   0.028
 3.42 4.60 -5.670 -5.669 -5.668 -5.664 -5.658  7.72418 17.26347 -6.41090   0.034
 3.42 4.80 -5.650 -5.649 -5.647 -5.644 -5.638  7.88565 17.47137 -6.20297   0.041
 3.42 5.00 -5.626 -5.625 -5.623 -5.620 -5.614  8.04922 17.67779 -5.99654   0.049
 3.42 5.20 -5.598 -5.598 -5.596 -5.593 -5.587  8.21479 17.88294 -5.79143   0.059
 3.42 5.40 -5.568 -5.567 -5.566 -5.562 -5.556  8.38036 18.08717 -5.58722   0.072
 3.42 5.60 -5.535 -5.534 -5.533 -5.529 -5.524  8.54506 18.29051 -5.38383   0.087
 3.42 5.80 -5.499 -5.498 -5.497 -5.493 -5.488  8.70784 18.49324 -5.18102   0.105
 3.42 6.00 -5.459 -5.459 -5.457 -5.454 -5.449  8.86923 18.69539 -4.97881   0.126
 3.42 6.25 -5.405 -5.405 -5.403 -5.400 -5.396  9.06843 18.94738 -4.72686   0.159
 3.42 6.50 -5.345 -5.345 -5.344 -5.341 -5.337  9.26553 19.19893 -4.47534   0.199
 3.42 6.75 -5.279 -5.278 -5.277 -5.275 -5.271  9.46085 19.45024 -4.22405   0.249
 3.42 7.00 -5.205 -5.205 -5.204 -5.202 -5.199  9.65447 19.70122 -3.97306   0.312
 3.42 7.25 -5.124 -5.123 -5.122 -5.121 -5.118  9.84689 19.95176 -3.72243   0.389
 3.42 7.50 -5.035 -5.035 -5.034 -5.033 -5.031 10.03703 20.20222 -3.47198   0.484
 3.42 7.75 -4.941 -4.940 -4.940 -4.939 -4.938 10.22220 20.45265 -3.22164   0.599
 3.42 8.00 -4.843 -4.843 -4.843 -4.842 -4.841 10.40329 20.70303 -2.97143   0.738
 3.44-2.00 -6.035 -6.034 -6.031 -6.026 -6.017  3.04179 10.41996-13.25446   0.001
 3.44-1.50 -6.104 -6.102 -6.098 -6.091 -6.080  3.30707 10.91991-12.75449   0.001
 3.44-1.00 -6.154 -6.151 -6.147 -6.137 -6.124  3.58467 11.41996-12.25446   0.001
 3.44-0.50 -6.175 -6.172 -6.166 -6.154 -6.138  3.88258 11.91991-11.75449   0.001
 3.44 0.00 -6.159 -6.155 -6.148 -6.133 -6.113  4.21378 12.41996-11.25438   0.001
 3.44 0.50 -6.103 -6.099 -6.090 -6.073 -6.049  4.59062 12.92012-10.75424   0.001
 3.44 1.00 -6.015 -6.009 -6.000 -5.980 -5.952  5.01115 13.42062-10.25368   0.001
 3.44 1.25 -5.963 -5.958 -5.948 -5.928 -5.900  5.23131 13.67120-10.00305   0.001
 3.44 1.50 -5.909 -5.905 -5.895 -5.876 -5.848  5.45148 13.92221 -9.75203   0.002
 3.44 1.75 -5.856 -5.852 -5.843 -5.826 -5.800  5.67017 14.17408 -9.50021   0.003
 3.44 2.00 -5.804 -5.801 -5.793 -5.779 -5.756  5.88711 14.42716 -9.24726   0.004
 3.44 2.25 -5.756 -5.753 -5.747 -5.734 -5.716  6.09996 14.68240 -8.99206   0.005
 3.44 2.50 -5.711 -5.709 -5.704 -5.694 -5.679  6.30899 14.94047 -8.73400   0.006
 3.44 2.75 -5.671 -5.669 -5.665 -5.658 -5.645  6.51367 15.20356 -8.47088   0.008
 3.44 3.00 -5.637 -5.636 -5.632 -5.626 -5.616  6.71374 15.47114 -8.20329   0.010
 3.44 3.20 -5.614 -5.613 -5.610 -5.604 -5.595  6.87012 15.69014 -7.98443   0.012
 3.44 3.40 -5.594 -5.593 -5.591 -5.586 -5.578  7.02327 15.91006 -7.76455   0.015
