
 ROSSELAND MASS ABSORPTION COEFFICENTS
 logT logP  0km/s  1km/s  2km/s  4km/s  8km/s  log Ne   log Na  log rho IPloCM-1
 3.32-2.00 -6.000 -5.994 -5.983 -5.962 -5.936  3.56832 10.54033-13.13389
 3.32-1.50 -6.027 -6.021 -6.009 -5.989 -5.962  3.96619 11.04139-12.63302
 3.32-1.00 -6.037 -6.030 -6.018 -5.998 -5.971  4.40518 11.54419-12.13012
 3.32-0.50 -6.033 -6.027 -6.015 -5.993 -5.965  4.86445 12.05231-11.62178
 3.32 0.00 -6.017 -6.011 -5.999 -5.977 -5.949  5.32243 12.57380-11.10051
 3.32 0.50 -5.995 -5.989 -5.977 -5.956 -5.929  5.77327 13.11494-10.55941
 3.32 1.00 -5.970 -5.965 -5.953 -5.933 -5.908  6.21722 13.66829-10.00595
 3.32 1.25 -5.955 -5.949 -5.939 -5.920 -5.896  6.43647 13.94330 -9.73092
 3.32 1.50 -5.937 -5.931 -5.921 -5.903 -5.880  6.65495 14.21643 -9.45780
 3.32 1.75 -5.915 -5.910 -5.900 -5.883 -5.861  6.87324 14.48542 -9.18875
 3.32 2.00 -5.892 -5.886 -5.877 -5.860 -5.839  7.09061 14.75113 -8.92300
 3.32 2.25 -5.865 -5.860 -5.852 -5.836 -5.815  7.30299 15.01336 -8.66080
 3.32 2.50 -5.837 -5.833 -5.825 -5.810 -5.790  7.50947 15.27300 -8.40121
 3.32 2.75 -5.808 -5.803 -5.796 -5.783 -5.764  7.70402 15.53044 -8.14379
 3.32 3.00 -5.776 -5.773 -5.766 -5.753 -5.736  7.88880 15.78618 -7.88807
 3.32 3.20 -5.749 -5.745 -5.739 -5.728 -5.712  8.02842 15.98972 -7.68455
 3.32 3.40 -5.718 -5.716 -5.710 -5.700 -5.685  8.16355 16.19260 -7.48168
 3.32 3.60 -5.686 -5.683 -5.678 -5.670 -5.656  8.29373 16.39489 -7.27943
 3.32 3.80 -5.650 -5.648 -5.644 -5.636 -5.624  8.42146 16.59677 -7.07760
 3.32 4.00 -5.610 -5.608 -5.605 -5.598 -5.587  8.54802 16.79824 -6.87615
 3.32 4.20 -5.571 -5.569 -5.566 -5.560 -5.549  8.67371 16.99933 -6.67499
 3.32 4.40 -5.527 -5.525 -5.522 -5.516 -5.504  8.79940 17.20022 -6.47405
 3.32 4.60 -5.479 -5.477 -5.474 -5.467 -5.456  8.92604 17.40096 -6.27332
 3.32 4.80 -5.425 -5.423 -5.421 -5.414 -5.403  9.05450 17.60159 -6.07272
 3.32 5.00 -5.366 -5.364 -5.361 -5.354 -5.343  9.18412 17.80209 -5.87225
 3.32 5.20 -5.299 -5.298 -5.295 -5.288 -5.278  9.31565 18.00238 -5.67186
 3.32 5.40 -5.224 -5.223 -5.220 -5.213 -5.203  9.44719 18.20264 -5.47154
 3.32 5.60 -5.138 -5.137 -5.134 -5.128 -5.117  9.57818 18.40289 -5.27130
 3.32 5.80 -5.038 -5.037 -5.034 -5.028 -5.018  9.70746 18.60312 -5.07111
 3.32 6.00 -4.921 -4.919 -4.916 -4.910 -4.901  9.83518 18.80332 -4.87096
 3.32 6.25 -4.741 -4.739 -4.737 -4.731 -4.723  9.98928 19.05350 -4.62080
 3.32 6.50 -4.515 -4.514 -4.512 -4.507 -4.500 10.13862 19.30363 -4.37069
 3.32 6.75 -4.231 -4.230 -4.228 -4.225 -4.219 10.28270 19.55368 -4.12066
 3.32 7.00 -4.032 -4.031 -4.030 -4.026 -4.022 10.42275 19.80373 -3.87063
 3.32 7.25 -3.909 -3.908 -3.907 -3.904 -3.900 10.55931 20.05379 -3.62057
 3.32 7.50 -3.785 -3.784 -3.783 -3.780 -3.777 10.69311 20.30384 -3.37049
 3.32 7.75 -3.662 -3.661 -3.660 -3.658 -3.655 10.82487 20.55387 -3.12040
 3.32 8.00 -3.542 -3.541 -3.540 -3.538 -3.535 10.95434 20.80387 -2.87031
 3.34-2.00 -5.858 -5.852 -5.840 -5.819 -5.792  3.82053 10.51996-13.15428
 3.34-1.50 -5.912 -5.906 -5.894 -5.873 -5.845  4.15746 11.02036-12.65404
 3.34-1.00 -5.945 -5.939 -5.927 -5.905 -5.877  4.52179 11.52114-12.15311
 3.34-0.50 -5.949 -5.943 -5.930 -5.908 -5.879  4.92886 12.02366-11.65033
 3.34 0.00 -5.925 -5.918 -5.905 -5.882 -5.854  5.37328 12.53199-11.14231
 3.34 0.50 -5.882 -5.876 -5.864 -5.842 -5.814  5.83296 13.05269-10.62160
 3.34 1.00 -5.838 -5.832 -5.820 -5.800 -5.774  6.29070 13.59329-10.08092
 3.34 1.25 -5.817 -5.811 -5.799 -5.780 -5.754  6.51606 13.87002 -9.80430
 3.34 1.50 -5.795 -5.789 -5.778 -5.759 -5.734  6.73870 14.14675 -9.52768
 3.34 1.75 -5.771 -5.765 -5.754 -5.735 -5.712  6.95763 14.42190 -9.25257
 3.34 2.00 -5.744 -5.738 -5.728 -5.709 -5.686  7.17435 14.69522 -8.97922
 3.34 2.25 -5.713 -5.706 -5.697 -5.679 -5.656  7.38982 14.96434 -8.71000
 3.34 2.50 -5.678 -5.673 -5.663 -5.647 -5.624  7.60315 15.23019 -8.44406
 3.34 2.75 -5.640 -5.635 -5.627 -5.612 -5.590  7.81390 15.49267 -8.18168
 3.34 3.00 -5.601 -5.597 -5.589 -5.575 -5.556  8.02036 15.75251 -7.92191
 3.34 3.20 -5.569 -5.566 -5.559 -5.546 -5.528  8.17828 15.95863 -7.71572
 3.34 3.40 -5.537 -5.533 -5.528 -5.516 -5.499  8.33051 16.16366 -7.51063
 3.34 3.60 -5.503 -5.501 -5.495 -5.486 -5.470  8.47606 16.36765 -7.30658
 3.34 3.80 -5.469 -5.467 -5.462 -5.454 -5.439  8.61556 16.57094 -7.10328
 3.34 4.00 -5.433 -5.431 -5.427 -5.420 -5.408  8.75020 16.77357 -6.90067
 3.34 4.20 -5.400 -5.398 -5.394 -5.387 -5.376  8.87995 16.97567 -6.69864
 3.34 4.40 -5.364 -5.363 -5.359 -5.352 -5.340  9.00767 17.17737 -6.49699
 3.34 4.60 -5.326 -5.324 -5.321 -5.313 -5.302  9.13321 17.37867 -6.29571
 3.34 4.80 -5.284 -5.283 -5.279 -5.273 -5.261  9.25806 17.57972 -6.09465
 3.34 5.00 -5.239 -5.237 -5.234 -5.227 -5.216  9.38292 17.78053 -5.89381
 3.34 5.20 -5.190 -5.188 -5.186 -5.179 -5.167  9.50892 17.98119 -5.69313
 3.34 5.40 -5.137 -5.135 -5.132 -5.126 -5.115  9.63571 18.18172 -5.49257
 3.34 5.60 -5.079 -5.078 -5.075 -5.068 -5.057  9.76384 18.38215 -5.29211
 3.34 5.80 -5.017 -5.016 -5.013 -5.006 -4.996  9.89272 18.58250 -5.09173
 3.34 6.00 -4.952 -4.950 -4.947 -4.941 -4.931 10.02160 18.78276 -4.89144
 3.34 6.25 -4.866 -4.865 -4.862 -4.856 -4.846 10.18104 19.03292 -4.64122
 3.34 6.50 -4.778 -4.776 -4.774 -4.768 -4.759 10.33846 19.28308 -4.39105
 3.34 6.75 -4.688 -4.687 -4.684 -4.678 -4.670 10.49085 19.53328 -4.14089
 3.34 7.00 -4.598 -4.597 -4.594 -4.589 -4.581 10.63899 19.78348 -3.89076
 3.34 7.25 -4.508 -4.506 -4.504 -4.499 -4.492 10.78226 20.03350 -3.64074
 3.34 7.50 -4.418 -4.417 -4.415 -4.410 -4.404 10.92169 20.28353 -3.39073
 3.34 7.75 -4.330 -4.329 -4.327 -4.323 -4.317 11.05798 20.53359 -3.14061
 3.34 8.00 -4.243 -4.241 -4.240 -4.236 -4.230 11.19089 20.78369 -2.89042
 3.36-2.00 -5.696 -5.690 -5.678 -5.656 -5.629  4.08529 10.49996-13.17438
 3.36-1.50 -5.762 -5.755 -5.743 -5.721 -5.693  4.42045 10.99996-12.67428
 3.36-1.00 -5.816 -5.809 -5.797 -5.775 -5.746  4.74997 11.50024-12.17399
 3.36-0.50 -5.847 -5.840 -5.827 -5.804 -5.775  5.09237 12.00130-11.67305
 3.36 0.00 -5.839 -5.832 -5.820 -5.796 -5.767  5.46879 12.50406-11.17025
 3.36 0.50 -5.796 -5.789 -5.776 -5.753 -5.725  5.88925 13.01242-10.66194
 3.36 1.00 -5.731 -5.724 -5.712 -5.691 -5.664  6.34183 13.53339-10.14080
 3.36 1.25 -5.696 -5.689 -5.678 -5.656 -5.630  6.57247 13.80201 -9.87221
 3.36 1.50 -5.661 -5.654 -5.642 -5.622 -5.595  6.80312 14.07445 -9.59981
 3.36 1.75 -5.625 -5.619 -5.607 -5.586 -5.560  7.03067 14.35116 -9.32312
 3.36 2.00 -5.589 -5.583 -5.572 -5.552 -5.526  7.25527 14.62788 -9.04643
 3.36 2.25 -5.552 -5.546 -5.535 -5.516 -5.490  7.47479 14.90292 -8.77136
 3.36 2.50 -5.513 -5.507 -5.497 -5.479 -5.454  7.69082 15.17609 -8.49812
 3.36 2.75 -5.469 -5.465 -5.455 -5.438 -5.415  7.90397 15.44513 -8.22910
 3.36 3.00 -5.423 -5.419 -5.411 -5.396 -5.374  8.11428 15.71088 -7.96337
 3.36 3.20 -5.385 -5.381 -5.374 -5.360 -5.340  8.28121 15.92086 -7.75335
 3.36 3.40 -5.346 -5.342 -5.336 -5.324 -5.306  8.44567 16.12919 -7.54498
 3.36 3.60 -5.306 -5.303 -5.297 -5.287 -5.270  8.60661 16.33597 -7.33820
 3.36 3.80 -5.266 -5.263 -5.259 -5.250 -5.234  8.76210 16.54158 -7.13261
 3.36 4.00 -5.226 -5.224 -5.220 -5.212 -5.199  8.91259 16.74609 -6.92812
 3.36 4.20 -5.190 -5.188 -5.184 -5.176 -5.164  9.05580 16.94956 -6.72461
 3.36 4.40 -5.153 -5.151 -5.147 -5.140 -5.127  9.19402 17.15240 -6.52175
 3.36 4.60 -5.114 -5.112 -5.109 -5.101 -5.090  9.32683 17.35467 -6.31948
 3.36 4.80 -5.074 -5.072 -5.069 -5.061 -5.050  9.45613 17.55657 -6.11761
 3.36 5.00 -5.030 -5.028 -5.025 -5.018 -5.006  9.58297 17.75808 -5.91614
 3.36 5.20 -4.983 -4.982 -4.978 -4.971 -4.960  9.70738 17.95923 -5.71504
 3.36 5.40 -4.932 -4.930 -4.927 -4.920 -4.909  9.83178 18.16016 -5.51413
 3.36 5.60 -4.875 -4.873 -4.870 -4.864 -4.853  9.95629 18.36091 -5.31338
 3.36 5.80 -4.813 -4.811 -4.808 -4.802 -4.791 10.08113 18.56153 -5.11273
 3.36 6.00 -4.746 -4.744 -4.741 -4.735 -4.724 10.20629 18.76200 -4.91222
 3.36 6.25 -4.655 -4.654 -4.652 -4.645 -4.636 10.36437 19.01237 -4.66180
 3.36 6.50 -4.561 -4.559 -4.557 -4.551 -4.542 10.52244 19.26269 -4.41150
 3.36 6.75 -4.463 -4.462 -4.459 -4.454 -4.446 10.67895 19.51300 -4.16132
 3.36 7.00 -4.365 -4.364 -4.361 -4.356 -4.349 10.83359 19.76328 -3.91116
 3.36 7.25 -4.267 -4.266 -4.264 -4.260 -4.253 10.98376 20.01334 -3.66099
 3.36 7.50 -4.172 -4.170 -4.169 -4.165 -4.159 11.13001 20.26340 -3.41083
 3.36 7.75 -4.079 -4.078 -4.076 -4.072 -4.067 11.27197 20.51351 -3.16078
 3.36 8.00 -3.989 -3.988 -3.986 -3.982 -3.978 11.40976 20.76365 -2.91080
 3.38-2.00 -5.547 -5.540 -5.528 -5.505 -5.478  4.28937 10.47986-13.19443
 3.38-1.50 -5.605 -5.599 -5.586 -5.564 -5.537  4.66153 10.97987-12.69443
 3.38-1.00 -5.665 -5.658 -5.646 -5.623 -5.594  5.00732 11.48001-12.19430
 3.38-0.50 -5.713 -5.706 -5.692 -5.668 -5.639  5.33766 11.98028-11.69400
 3.38 0.00 -5.731 -5.723 -5.710 -5.686 -5.657  5.66913 12.48130-11.19301
 3.38 0.50 -5.707 -5.700 -5.687 -5.664 -5.636  6.02202 12.98430-10.68994
 3.38 1.00 -5.644 -5.637 -5.625 -5.603 -5.575  6.41614 13.49318-10.18118
 3.38 1.25 -5.601 -5.594 -5.582 -5.559 -5.532  6.63122 13.75227 -9.92208
 3.38 1.50 -5.552 -5.545 -5.533 -5.511 -5.484  6.85370 14.01536 -9.65896
 3.38 1.75 -5.500 -5.494 -5.481 -5.460 -5.432  7.08368 14.28468 -9.38962
 3.38 2.00 -5.448 -5.442 -5.429 -5.409 -5.381  7.31366 14.55763 -9.11668
 3.38 2.25 -5.396 -5.390 -5.379 -5.359 -5.332  7.54198 14.83445 -8.83994
 3.38 2.50 -5.345 -5.339 -5.329 -5.310 -5.285  7.76819 15.11126 -8.56320
 3.38 2.75 -5.295 -5.289 -5.279 -5.262 -5.238  7.98821 15.38608 -8.28832
 3.38 3.00 -5.242 -5.238 -5.229 -5.214 -5.191  8.20385 15.65877 -8.01547
 3.38 3.20 -5.198 -5.195 -5.187 -5.173 -5.152  8.37324 15.87386 -7.80042
 3.38 3.40 -5.154 -5.151 -5.144 -5.131 -5.112  8.54045 16.08685 -7.58745
 3.38 3.60 -5.108 -5.104 -5.099 -5.087 -5.070  8.70605 16.29765 -7.37661
 3.38 3.80 -5.060 -5.057 -5.052 -5.042 -5.027  8.86977 16.50660 -7.16757
 3.38 4.00 -5.012 -5.010 -5.005 -4.997 -4.983  9.03100 16.71391 -6.96019
 3.38 4.20 -4.967 -4.965 -4.961 -4.953 -4.940  9.18802 16.91977 -6.75443
 3.38 4.40 -4.922 -4.920 -4.917 -4.909 -4.896  9.34056 17.12458 -6.54969
 3.38 4.60 -4.878 -4.876 -4.873 -4.865 -4.853  9.48751 17.32842 -6.34584
 3.38 4.80 -4.833 -4.832 -4.828 -4.821 -4.809  9.62858 17.53157 -6.14262
 3.38 5.00 -4.787 -4.786 -4.782 -4.775 -4.764  9.76477 17.73408 -5.94006
 3.38 5.20 -4.740 -4.739 -4.735 -4.728 -4.717  9.89577 17.93605 -5.73818
 3.38 5.40 -4.689 -4.687 -4.685 -4.677 -4.666 10.02400 18.13764 -5.53667
 3.38 5.60 -4.634 -4.632 -4.629 -4.623 -4.612 10.14913 18.33888 -5.33547
 3.38 5.80 -4.574 -4.573 -4.570 -4.563 -4.553 10.27305 18.53988 -5.13448
 3.38 6.00 -4.509 -4.508 -4.505 -4.499 -4.490 10.39672 18.74068 -4.93367
 3.38 6.25 -4.422 -4.421 -4.418 -4.412 -4.403 10.55112 18.99146 -4.68288
 3.38 6.50 -4.327 -4.326 -4.324 -4.318 -4.310 10.70552 19.24205 -4.43227
 3.38 6.75 -4.228 -4.227 -4.225 -4.220 -4.213 10.86086 19.49247 -4.18179
 3.38 7.00 -4.127 -4.126 -4.124 -4.120 -4.113 11.01620 19.74280 -3.93144
 3.38 7.25 -4.026 -4.024 -4.022 -4.019 -4.012 11.16970 19.99308 -3.68127
 3.38 7.50 -3.926 -3.925 -3.923 -3.919 -3.914 11.32118 20.24329 -3.43109
 3.38 7.75 -3.829 -3.828 -3.826 -3.823 -3.818 11.46854 20.49343 -3.18090
 3.38 8.00 -3.736 -3.735 -3.733 -3.730 -3.725 11.61247 20.74351 -2.93070
 3.40-2.00 -5.427 -5.420 -5.408 -5.386 -5.360  4.41296 10.45984-13.21439
 3.40-1.50 -5.469 -5.462 -5.449 -5.427 -5.400  4.83078 10.95985-12.71444
 3.40-1.00 -5.518 -5.511 -5.498 -5.475 -5.447  5.21958 11.46000-12.21439
 3.40-0.50 -5.567 -5.560 -5.546 -5.522 -5.493  5.57830 11.96000-11.71422
 3.40 0.00 -5.597 -5.590 -5.576 -5.552 -5.523  5.91482 12.46045-11.21389
 3.40 0.50 -5.594 -5.587 -5.574 -5.550 -5.521  6.24279 12.96147-10.71287
 3.40 1.00 -5.549 -5.541 -5.528 -5.505 -5.477  6.58149 13.46494-10.20943
 3.40 1.25 -5.509 -5.502 -5.489 -5.466 -5.437  6.76223 13.71868 -9.95563
 3.40 1.50 -5.459 -5.452 -5.439 -5.416 -5.388  6.95260 13.97460 -9.69962
 3.40 1.75 -5.399 -5.393 -5.379 -5.357 -5.329  7.15693 14.23463 -9.43961
 3.40 2.00 -5.334 -5.327 -5.315 -5.293 -5.265  7.37125 14.49886 -9.17542
 3.40 2.25 -5.265 -5.258 -5.247 -5.226 -5.200  7.59763 14.76929 -8.90500
 3.40 2.50 -5.195 -5.190 -5.179 -5.160 -5.134  7.82439 15.04297 -8.63134
 3.40 2.75 -5.127 -5.122 -5.113 -5.095 -5.071  8.05134 15.31984 -8.35449
 3.40 3.00 -5.060 -5.056 -5.048 -5.031 -5.009  8.27830 15.59671 -8.07764
 3.40 3.20 -5.007 -5.003 -4.996 -4.981 -4.961  8.45454 15.81640 -7.85796
 3.40 3.40 -4.955 -4.951 -4.944 -4.931 -4.912  8.62776 16.03453 -7.63984
 3.40 3.60 -4.901 -4.898 -4.891 -4.880 -4.862  8.79775 16.25051 -7.42388
 3.40 3.80 -4.846 -4.843 -4.838 -4.828 -4.812  8.96484 16.46395 -7.21048
 3.40 4.00 -4.790 -4.787 -4.783 -4.774 -4.760  9.12937 16.67532 -6.99913
 3.40 4.20 -4.737 -4.734 -4.730 -4.722 -4.709  9.29224 16.88462 -6.78981
 3.40 4.40 -4.682 -4.680 -4.676 -4.668 -4.656  9.45241 17.09235 -6.58204
 3.40 4.60 -4.628 -4.626 -4.623 -4.616 -4.604  9.60970 17.29854 -6.37579
 3.40 4.80 -4.576 -4.575 -4.571 -4.564 -4.553  9.76306 17.50360 -6.17067
 3.40 5.00 -4.523 -4.522 -4.518 -4.512 -4.500  9.91233 17.70766 -5.96658
 3.40 5.20 -4.471 -4.470 -4.467 -4.460 -4.449 10.05533 17.91086 -5.76339
 3.40 5.40 -4.418 -4.416 -4.413 -4.407 -4.397 10.19363 18.11349 -5.56077
 3.40 5.60 -4.363 -4.362 -4.358 -4.352 -4.342 10.32682 18.31558 -5.35863
 3.40 5.80 -4.305 -4.304 -4.301 -4.294 -4.285 10.45623 18.51730 -5.15685
 3.40 6.00 -4.243 -4.242 -4.239 -4.233 -4.224 10.58274 18.71867 -4.95546
 3.40 6.25 -4.161 -4.160 -4.157 -4.152 -4.144 10.73739 18.96994 -4.70436
 3.40 6.50 -4.072 -4.071 -4.069 -4.064 -4.057 10.89087 19.22089 -4.45346
 3.40 6.75 -3.979 -3.978 -3.976 -3.971 -3.964 11.04356 19.47159 -4.20262
 3.40 7.00 -3.881 -3.880 -3.878 -3.875 -3.868 11.19618 19.72214 -3.95195
 3.40 7.25 -3.781 -3.780 -3.779 -3.775 -3.769 11.34879 19.97262 -3.70166
 3.40 7.50 -3.681 -3.680 -3.678 -3.675 -3.670 11.50133 20.22298 -3.45136
 3.40 7.75 -3.582 -3.581 -3.580 -3.577 -3.572 11.65144 20.47320 -3.20107
 3.40 8.00 -3.487 -3.486 -3.484 -3.481 -3.477 11.79989 20.72329 -2.95078
 3.42-2.00 -5.338 -5.332 -5.320 -5.298 -5.273  4.47159 10.43996-13.23433
 3.42-1.50 -5.362 -5.356 -5.343 -5.321 -5.294  4.92717 10.93992-12.73448
 3.42-1.00 -5.395 -5.388 -5.375 -5.352 -5.325  5.35774 11.43996-12.23433
 3.42-0.50 -5.431 -5.423 -5.410 -5.387 -5.358  5.76118 11.93997-11.73424
 3.42 0.00 -5.459 -5.452 -5.438 -5.414 -5.384  6.13354 12.44012-11.23418
 3.42 0.50 -5.463 -5.456 -5.442 -5.418 -5.388  6.47871 12.94052-10.73377
 3.42 1.00 -5.429 -5.421 -5.408 -5.383 -5.354  6.80828 13.44185-10.23240
 3.42 1.25 -5.395 -5.387 -5.374 -5.350 -5.320  6.97352 13.69333 -9.98088
 3.42 1.50 -5.350 -5.342 -5.329 -5.305 -5.276  7.13956 13.94576 -9.72839
 3.42 1.75 -5.294 -5.286 -5.274 -5.250 -5.222  7.31313 14.20019 -9.47402
 3.42 2.00 -5.227 -5.221 -5.208 -5.186 -5.158  7.49443 14.45713 -9.21717
 3.42 2.25 -5.151 -5.145 -5.134 -5.113 -5.086  7.68901 14.71841 -8.95585
 3.42 2.50 -5.069 -5.063 -5.053 -5.034 -5.008  7.89448 14.98403 -8.69016
 3.42 2.75 -4.982 -4.977 -4.967 -4.950 -4.926  8.11401 15.25601 -8.41817
 3.42 3.00 -4.895 -4.890 -4.882 -4.866 -4.843  8.33666 15.53058 -8.14363
 3.42 3.20 -4.825 -4.821 -4.813 -4.799 -4.778  8.51647 15.75204 -7.92227
 3.42 3.40 -4.757 -4.753 -4.746 -4.734 -4.715  8.69628 15.97349 -7.70092
 3.42 3.60 -4.690 -4.686 -4.681 -4.669 -4.652  8.87418 16.19399 -7.48046
 3.42 3.80 -4.624 -4.621 -4.616 -4.606 -4.590  9.04797 16.41218 -7.26221
 3.42 4.00 -4.559 -4.556 -4.552 -4.543 -4.530  9.21880 16.62859 -7.04571
 3.42 4.20 -4.497 -4.495 -4.491 -4.482 -4.470  9.38583 16.84226 -6.83207
 3.42 4.40 -4.435 -4.433 -4.429 -4.422 -4.410  9.55007 17.05390 -6.62046
 3.42 4.60 -4.373 -4.372 -4.368 -4.362 -4.350  9.71196 17.26347 -6.41091
 3.42 4.80 -4.313 -4.312 -4.309 -4.302 -4.291  9.87148 17.47137 -6.20299
 3.42 5.00 -4.253 -4.252 -4.248 -4.242 -4.232 10.02816 17.67779 -5.99654
 3.42 5.20 -4.194 -4.193 -4.191 -4.184 -4.174 10.18153 17.88294 -5.79135
 3.42 5.40 -4.136 -4.135 -4.132 -4.126 -4.117 10.33093 18.08717 -5.58710
 3.42 5.60 -4.077 -4.076 -4.074 -4.068 -4.060 10.47558 18.29051 -5.38373
 3.42 5.80 -4.019 -4.017 -4.015 -4.009 -4.001 10.61508 18.49324 -5.18098
 3.42 6.00 -3.958 -3.957 -3.955 -3.949 -3.942 10.75012 18.69539 -4.97881
 3.42 6.25 -3.880 -3.879 -3.877 -3.872 -3.865 10.91237 18.94738 -4.72677
 3.42 6.50 -3.798 -3.797 -3.795 -3.791 -3.784 11.07004 19.19893 -4.47522
 3.42 6.75 -3.712 -3.711 -3.709 -3.705 -3.699 11.22374 19.45024 -4.22398
 3.42 7.00 -3.622 -3.621 -3.619 -3.615 -3.610 11.37585 19.70122 -3.97306
 3.42 7.25 -3.528 -3.527 -3.526 -3.522 -3.517 11.52707 19.95176 -3.72243
 3.42 7.50 -3.432 -3.431 -3.430 -3.427 -3.422 11.67752 20.20222 -3.47198
 3.42 7.75 -3.336 -3.335 -3.333 -3.330 -3.326 11.82743 20.45265 -3.22164
 3.42 8.00 -3.241 -3.240 -3.239 -3.236 -3.231 11.97672 20.70303 -2.97143
 3.44-2.00 -5.280 -5.273 -5.262 -5.241 -5.216  4.47972 10.41996-13.25438
 3.44-1.50 -5.286 -5.279 -5.267 -5.246 -5.220  4.96492 10.91991-12.75449
 3.44-1.00 -5.300 -5.294 -5.281 -5.258 -5.231  5.43201 11.41996-12.25438
 3.44-0.50 -5.320 -5.313 -5.300 -5.277 -5.248  5.87419 11.91991-11.75424
 3.44 0.00 -5.336 -5.328 -5.314 -5.291 -5.262  6.28981 12.41996-11.25430
 3.44 0.50 -5.333 -5.326 -5.312 -5.287 -5.258  6.67523 12.92012-10.75424
 3.44 1.00 -5.297 -5.290 -5.276 -5.252 -5.222  7.03060 13.42062-10.25360
 3.44 1.25 -5.263 -5.256 -5.242 -5.219 -5.189  7.19862 13.67121-10.00299
 3.44 1.50 -5.219 -5.212 -5.199 -5.175 -5.146  7.36455 13.92221 -9.75203
 3.44 1.75 -5.164 -5.158 -5.145 -5.122 -5.094  7.52892 14.17402 -9.50020
 3.44 2.00 -5.100 -5.094 -5.082 -5.060 -5.032  7.69329 14.42700 -9.24718
 3.44 2.25 -5.025 -5.019 -5.008 -4.988 -4.961  7.86272 14.68229 -8.99190
 3.44 2.50 -4.940 -4.935 -4.924 -4.906 -4.881  8.03783 14.94047 -8.73377
 3.44 2.75 -4.845 -4.841 -4.832 -4.814 -4.791  8.22494 15.20357 -8.47073
 3.44 3.00 -4.744 -4.739 -4.731 -4.715 -4.694  8.42259 15.47114 -8.20322
 3.44 3.20 -4.659 -4.655 -4.648 -4.634 -4.614  8.59183 15.69014 -7.98428
 3.44 3.40 -4.575 -4.571 -4.564 -4.552 -4.534  8.76420 15.91006 -7.76436
 3.44 3.60 -4.491 -4.487 -4.482 -4.471 -4.454  8.93988 16.13089 -7.54348
 3.44 3.80 -4.409 -4.406 -4.401 -4.391 -4.377  9.11651 16.35194 -7.32235
 3.44 4.00 -4.330 -4.328 -4.323 -4.315 -4.302  9.29314 16.57299 -7.10122
 3.44 4.20 -4.256 -4.254 -4.251 -4.243 -4.231  9.46619 16.79122 -6.88303
 3.44 4.40 -4.185 -4.183 -4.180 -4.173 -4.162  9.63665 17.00752 -6.66679
 3.44 4.60 -4.116 -4.115 -4.112 -4.105 -4.095  9.80398 17.22155 -6.45280
 3.44 4.80 -4.050 -4.048 -4.045 -4.040 -4.030  9.96795 17.43328 -6.24104
 3.44 5.00 -3.984 -3.982 -3.980 -3.974 -3.966 10.12905 17.64306 -6.03124
 3.44 5.20 -3.921 -3.919 -3.916 -3.911 -3.903 10.28786 17.85092 -5.82338
 3.44 5.40 -3.857 -3.855 -3.853 -3.848 -3.840 10.44369 18.05742 -5.61688
 3.44 5.60 -3.794 -3.793 -3.790 -3.786 -3.778 10.59650 18.26266 -5.41165
 3.44 5.80 -3.732 -3.731 -3.728 -3.724 -3.717 10.74562 18.46699 -5.20733
 3.44 6.00 -3.670 -3.669 -3.667 -3.662 -3.655 10.89087 18.67043 -5.00388
 3.44 6.25 -3.592 -3.591 -3.590 -3.586 -3.579 11.06514 18.92364 -4.75060
 3.44 6.50 -3.514 -3.513 -3.511 -3.507 -3.501 11.23274 19.17609 -4.49812
 3.44 6.75 -3.433 -3.432 -3.431 -3.428 -3.422 11.39342 19.42805 -4.24626
 3.44 7.00 -3.350 -3.350 -3.348 -3.344 -3.339 11.54962 19.67952 -3.99482
 3.44 7.25 -3.264 -3.263 -3.262 -3.258 -3.254 11.70208 19.93049 -3.74368
 3.44 7.50 -3.175 -3.174 -3.173 -3.170 -3.165 11.85248 20.18127 -3.49282
 3.44 7.75 -3.084 -3.084 -3.082 -3.080 -3.076 12.00173 20.43196 -3.24220
 3.44 8.00 -2.994 -2.994 -2.992 -2.989 -2.985 12.14953 20.68251 -2.99183
 3.46-2.00 -5.241 -5.236 -5.226 -5.208 -5.185  4.47349 10.39985-13.27442
 3.46-1.50 -5.236 -5.231 -5.219 -5.199 -5.175  4.96464 10.89988-12.77443
 3.46-1.00 -5.235 -5.229 -5.216 -5.195 -5.169  5.45347 11.39985-12.27442
 3.46-0.50 -5.237 -5.230 -5.217 -5.195 -5.167  5.92916 11.89988-11.77443
 3.46 0.00 -5.236 -5.229 -5.216 -5.193 -5.165  6.38184 12.39985-11.27433
 3.46 0.50 -5.220 -5.213 -5.199 -5.176 -5.147  6.80787 12.89993-10.77443
