 ROSSELAND MASS ABSORPTION COEFFICIENTS [-2.5]
 logT logP  0km/s  1km/s  2km/s  4km/s  8km/s  log Ne   log Na  log rho IPloCM-1
 3.32-2.00 -6.260 -6.255 -6.245 -6.225 -6.200  3.21139 10.54033-13.13395   0.001
 3.32-1.50 -6.308 -6.303 -6.293 -6.274 -6.249  3.56891 11.04139-12.63302   0.001
 3.32-1.00 -6.330 -6.325 -6.315 -6.296 -6.271  3.96858 11.54419-12.13018   0.001
 3.32-0.50 -6.319 -6.314 -6.303 -6.284 -6.258  4.41263 12.05231-11.62197   0.001
 3.32 0.00 -6.280 -6.274 -6.264 -6.243 -6.215  4.88360 12.57380-11.10056   0.001
 3.32 0.50 -6.230 -6.224 -6.213 -6.192 -6.163  5.35755 13.11494-10.55956   0.002
 3.32 1.00 -6.183 -6.178 -6.168 -6.148 -6.121  5.81671 13.66829-10.00599   0.004
 3.32 1.25 -6.161 -6.156 -6.147 -6.129 -6.103  6.03795 13.94330 -9.73093   0.005
 3.32 1.50 -6.140 -6.135 -6.127 -6.110 -6.087  6.25551 14.21643 -9.45780   0.007
 3.32 1.75 -6.118 -6.113 -6.106 -6.091 -6.070  6.46947 14.48542 -9.18895   0.009
 3.32 2.00 -6.095 -6.091 -6.084 -6.070 -6.051  6.68278 14.75113 -8.92336   0.011
 3.32 2.25 -6.070 -6.067 -6.060 -6.048 -6.031  6.89601 15.01336 -8.66105   0.014
 3.32 2.50 -6.044 -6.041 -6.035 -6.024 -6.008  7.10857 15.27300 -8.40132   0.019
 3.32 2.75 -6.016 -6.013 -6.008 -5.998 -5.983  7.31675 15.53044 -8.14383   0.024
 3.32 3.00 -5.986 -5.984 -5.979 -5.970 -5.957  7.51970 15.78618 -7.88807   0.030
 3.32 3.20 -5.960 -5.958 -5.954 -5.946 -5.934  7.67384 15.98972 -7.68454   0.036
 3.32 3.40 -5.933 -5.931 -5.928 -5.920 -5.909  7.82213 16.19260 -7.48168   0.042
 3.32 3.60 -5.905 -5.903 -5.900 -5.894 -5.883  7.96384 16.39489 -7.27943   0.050
 3.32 3.80 -5.875 -5.873 -5.871 -5.865 -5.856  8.10016 16.59677 -7.07760   0.058
 3.32 4.00 -5.842 -5.841 -5.838 -5.833 -5.825  8.23223 16.79824 -6.87615   0.068
 3.32 4.20 -5.810 -5.809 -5.807 -5.802 -5.794  8.35989 16.99933 -6.67499   0.079
 3.32 4.40 -5.776 -5.774 -5.772 -5.767 -5.759  8.48654 17.20022 -6.47405   0.091
 3.32 4.60 -5.737 -5.736 -5.734 -5.728 -5.720  8.61221 17.40096 -6.27331   0.105
 3.32 4.80 -5.694 -5.693 -5.691 -5.685 -5.677  8.73765 17.60159 -6.07271   0.122
 3.32 5.00 -5.646 -5.645 -5.643 -5.637 -5.629  8.86308 17.80209 -5.87225   0.141
 3.32 5.20 -5.592 -5.591 -5.589 -5.584 -5.575  8.99070 18.00238 -5.67192   0.163
 3.32 5.40 -5.532 -5.531 -5.529 -5.524 -5.515  9.11954 18.20264 -5.47163   0.189
 3.32 5.60 -5.464 -5.463 -5.461 -5.456 -5.448  9.25017 18.40289 -5.27138   0.220
 3.32 5.80 -5.386 -5.385 -5.383 -5.378 -5.370  9.38169 18.60312 -5.07115   0.256
 3.32 6.00 -5.293 -5.292 -5.290 -5.286 -5.278  9.51322 18.80332 -4.87096   0.297
 3.32 6.25 -5.149 -5.149 -5.147 -5.143 -5.136  9.67543 19.05350 -4.62087   0.358
 3.32 6.50 -4.960 -4.959 -4.957 -4.954 -4.948  9.83512 19.30363 -4.37080   0.431
 3.32 6.75 -4.703 -4.703 -4.701 -4.698 -4.694  9.98907 19.55368 -4.12071   0.514
 3.32 7.00 -4.520 -4.520 -4.519 -4.516 -4.512 10.13830 19.80373 -3.87063   0.610
 3.32 7.25 -4.410 -4.409 -4.408 -4.406 -4.403 10.28239 20.05379 -3.62060   0.720
 3.32 7.50 -4.297 -4.296 -4.295 -4.294 -4.290 10.42243 20.30384 -3.37059   0.847
 3.32 7.75 -4.181 -4.181 -4.180 -4.178 -4.176 10.55918 20.55387 -3.12060   0.991
 3.32 8.00 -4.063 -4.063 -4.062 -4.061 -4.058 10.69241 20.80387 -2.87063   1.155
 3.34-2.00 -6.094 -6.088 -6.077 -6.056 -6.029  3.49038 10.51996-13.15434   0.001
 3.34-1.50 -6.152 -6.147 -6.136 -6.115 -6.087  3.82066 11.02036-12.65404   0.001
 3.34-1.00 -6.198 -6.192 -6.181 -6.161 -6.133  4.15806 11.52114-12.15317   0.001
 3.34-0.50 -6.214 -6.208 -6.197 -6.176 -6.147  4.52388 12.02366-11.65053   0.001
 3.34 0.00 -6.186 -6.179 -6.168 -6.146 -6.116  4.93571 12.53199-11.14237   0.001
 3.34 0.50 -6.122 -6.116 -6.104 -6.082 -6.052  5.39182 13.05269-10.62160   0.003
 3.34 1.00 -6.054 -6.049 -6.038 -6.018 -5.991  5.86811 13.59329-10.08097   0.004
 3.34 1.25 -6.026 -6.021 -6.011 -5.993 -5.968  6.10303 13.87002 -9.80433   0.005
 3.34 1.50 -6.002 -5.998 -5.989 -5.972 -5.949  6.33445 14.14675 -9.52768   0.007
 3.34 1.75 -5.981 -5.977 -5.969 -5.953 -5.933  6.55852 14.42190 -9.25256   0.009
 3.34 2.00 -5.961 -5.957 -5.949 -5.935 -5.916  6.77743 14.69522 -8.97922   0.012
 3.34 2.25 -5.939 -5.936 -5.929 -5.916 -5.898  6.99073 14.96434 -8.71007   0.016
 3.34 2.50 -5.917 -5.913 -5.907 -5.895 -5.878  7.20194 15.23019 -8.44418   0.020
 3.34 2.75 -5.890 -5.887 -5.881 -5.870 -5.854  7.41237 15.49267 -8.18173   0.026
 3.34 3.00 -5.860 -5.857 -5.852 -5.841 -5.827  7.62107 15.75251 -7.92191   0.033
 3.34 3.20 -5.832 -5.830 -5.825 -5.815 -5.802  7.78663 15.95863 -7.71578   0.040
 3.34 3.40 -5.802 -5.800 -5.796 -5.787 -5.774  7.94986 16.16366 -7.51073   0.048
 3.34 3.60 -5.770 -5.768 -5.764 -5.757 -5.745  8.10910 16.36765 -7.30667   0.058
 3.34 3.80 -5.736 -5.735 -5.731 -5.725 -5.714  8.26216 16.57094 -7.10332   0.069
 3.34 4.00 -5.701 -5.700 -5.697 -5.692 -5.682  8.40993 16.77357 -6.90067   0.082
 3.34 4.20 -5.670 -5.669 -5.666 -5.661 -5.652  8.55059 16.97567 -6.69863   0.096
 3.34 4.40 -5.638 -5.637 -5.634 -5.629 -5.619  8.68666 17.17737 -6.49699   0.112
 3.34 4.60 -5.604 -5.603 -5.601 -5.595 -5.586  8.81776 17.37867 -6.29570   0.130
 3.34 4.80 -5.570 -5.569 -5.566 -5.561 -5.551  8.94594 17.57972 -6.09464   0.151
 3.34 5.00 -5.533 -5.532 -5.529 -5.524 -5.515  9.07225 17.78053 -5.89381   0.175
 3.34 5.20 -5.494 -5.493 -5.491 -5.485 -5.476  9.19688 17.98119 -5.69319   0.202
 3.34 5.40 -5.453 -5.452 -5.449 -5.444 -5.435  9.32150 18.18172 -5.49267   0.233
 3.34 5.60 -5.408 -5.407 -5.405 -5.399 -5.391  9.44660 18.38215 -5.29220   0.269
 3.34 5.80 -5.360 -5.359 -5.357 -5.352 -5.343  9.57277 18.58250 -5.09178   0.311
 3.34 6.00 -5.308 -5.307 -5.305 -5.300 -5.292  9.69975 18.78276 -4.89144   0.360
 3.34 6.25 -5.238 -5.237 -5.235 -5.230 -5.222  9.86068 19.03292 -4.64129   0.433
 3.34 6.50 -5.161 -5.160 -5.158 -5.154 -5.147 10.02160 19.28308 -4.39115   0.521
 3.34 6.75 -5.079 -5.079 -5.077 -5.073 -5.066 10.18092 19.53328 -4.14096   0.626
 3.34 7.00 -4.994 -4.993 -4.992 -4.988 -4.982 10.33826 19.78348 -3.89076   0.751
 3.34 7.25 -4.907 -4.906 -4.905 -4.901 -4.896 10.49052 20.03350 -3.64073   0.895
 3.34 7.50 -4.819 -4.819 -4.817 -4.814 -4.809 10.63849 20.28353 -3.39073   1.061
 3.34 7.75 -4.732 -4.731 -4.730 -4.727 -4.723 10.78187 20.53359 -3.14073   1.251
 3.34 8.00 -4.646 -4.645 -4.644 -4.641 -4.637 10.92075 20.78369 -2.89076   1.468
 3.36-2.00 -5.946 -5.939 -5.928 -5.907 -5.879  3.72965 10.49996-13.17444   0.001
 3.36-1.50 -5.995 -5.989 -5.977 -5.955 -5.927  4.08529 10.99996-12.67428   0.001
 3.36-1.00 -6.043 -6.037 -6.025 -6.003 -5.973  4.42062 11.50024-12.17406   0.001
 3.36-0.50 -6.074 -6.068 -6.056 -6.033 -6.003  4.75051 12.00130-11.67325   0.001
 3.36 0.00 -6.070 -6.063 -6.051 -6.027 -5.996  5.09447 12.50406-11.17031   0.002
 3.36 0.50 -6.023 -6.016 -6.004 -5.981 -5.950  5.47538 13.01242-10.66214   0.003
 3.36 1.00 -5.951 -5.946 -5.935 -5.915 -5.887  5.90741 13.53339-10.14086   0.004
 3.36 1.25 -5.916 -5.911 -5.901 -5.883 -5.858  6.14245 13.80201 -9.87234   0.006
 3.36 1.50 -5.884 -5.880 -5.871 -5.854 -5.831  6.37749 14.07445 -9.59998   0.008
 3.36 1.75 -5.856 -5.851 -5.843 -5.828 -5.807  6.61253 14.35116 -9.32323   0.010
 3.36 2.00 -5.830 -5.825 -5.818 -5.803 -5.784  6.84757 14.62788 -9.04648   0.013
 3.36 2.25 -5.804 -5.800 -5.793 -5.779 -5.760  7.07367 14.90292 -8.77137   0.017
 3.36 2.50 -5.777 -5.774 -5.767 -5.753 -5.735  7.29402 15.17609 -8.49812   0.022
 3.36 2.75 -5.748 -5.745 -5.739 -5.726 -5.709  7.50785 15.44513 -8.22909   0.028
 3.36 3.00 -5.717 -5.714 -5.708 -5.696 -5.680  7.71809 15.71088 -7.96337   0.036
 3.36 3.20 -5.688 -5.685 -5.680 -5.669 -5.654  7.88459 15.92086 -7.75341   0.044
 3.36 3.40 -5.657 -5.655 -5.650 -5.640 -5.626  8.04964 16.12919 -7.54508   0.053
 3.36 3.60 -5.623 -5.621 -5.616 -5.608 -5.595  8.21370 16.33597 -7.33829   0.064
 3.36 3.80 -5.586 -5.584 -5.580 -5.573 -5.561  8.37641 16.54158 -7.13265   0.077
 3.36 4.00 -5.546 -5.545 -5.542 -5.536 -5.526  8.53719 16.74609 -6.92812   0.092
 3.36 4.20 -5.511 -5.509 -5.506 -5.500 -5.490  8.69296 16.94956 -6.72467   0.110
 3.36 4.40 -5.474 -5.472 -5.470 -5.464 -5.454  8.84410 17.15240 -6.52185   0.131
 3.36 4.60 -5.436 -5.435 -5.433 -5.427 -5.417  8.98947 17.35467 -6.31957   0.155
 3.36 4.80 -5.399 -5.398 -5.395 -5.390 -5.380  9.12902 17.55657 -6.11766   0.182
 3.36 5.00 -5.360 -5.359 -5.356 -5.351 -5.342  9.26387 17.75808 -5.91614   0.213
 3.36 5.20 -5.320 -5.319 -5.317 -5.311 -5.302  9.39380 17.95923 -5.71504   0.247
 3.36 5.40 -5.278 -5.277 -5.275 -5.269 -5.261  9.52141 18.16016 -5.51413   0.286
 3.36 5.60 -5.233 -5.232 -5.230 -5.225 -5.216  9.64638 18.36091 -5.31337   0.331
 3.36 5.80 -5.185 -5.184 -5.182 -5.177 -5.169  9.77049 18.56153 -5.11272   0.381
 3.36 6.00 -5.133 -5.132 -5.130 -5.125 -5.117  9.89459 18.76200 -4.91222   0.440
 3.36 6.25 -5.062 -5.061 -5.059 -5.054 -5.047 10.05017 19.01237 -4.66189   0.526
 3.36 6.50 -4.983 -4.982 -4.980 -4.976 -4.970 10.20629 19.26269 -4.41162   0.630
 3.36 6.75 -4.898 -4.897 -4.895 -4.891 -4.885 10.36423 19.51300 -4.16137   0.756
 3.36 7.00 -4.806 -4.805 -4.804 -4.800 -4.794 10.52218 19.76328 -3.91116   0.907
 3.36 7.25 -4.710 -4.710 -4.708 -4.705 -4.700 10.67850 20.01334 -3.66097   1.086
 3.36 7.50 -4.613 -4.613 -4.611 -4.608 -4.604 10.83289 20.26340 -3.41083   1.297
 3.36 7.75 -4.517 -4.517 -4.515 -4.513 -4.509 10.98267 20.51351 -3.16078   1.541
 3.36 8.00 -4.423 -4.422 -4.421 -4.419 -4.415 11.12872 20.76365 -2.91080   1.823
 3.38-2.00 -5.829 -5.823 -5.812 -5.790 -5.762  3.88666 10.47986-13.19443   0.001
 3.38-1.50 -5.862 -5.856 -5.844 -5.822 -5.794  4.28937 10.97987-12.69443   0.001
 3.38-1.00 -5.899 -5.892 -5.880 -5.858 -5.828  4.66162 11.48001-12.19430   0.001
 3.38-0.50 -5.929 -5.922 -5.910 -5.886 -5.856  5.00732 11.98028-11.69400   0.002
 3.38 0.00 -5.935 -5.928 -5.915 -5.891 -5.860  5.33826 12.48130-11.19301   0.002
 3.38 0.50 -5.906 -5.900 -5.888 -5.865 -5.834  5.67117 12.98430-10.69016   0.003
 3.38 1.00 -5.850 -5.845 -5.834 -5.814 -5.787  6.02857 13.49318-10.18118   0.005
 3.38 1.25 -5.817 -5.812 -5.802 -5.783 -5.759  6.22528 13.75227 -9.92206   0.006
 3.38 1.50 -5.783 -5.778 -5.769 -5.752 -5.729  6.43425 14.01536 -9.65896   0.008
 3.38 1.75 -5.747 -5.743 -5.734 -5.718 -5.697  6.65941 14.28468 -9.38966   0.011
 3.38 2.00 -5.712 -5.707 -5.699 -5.684 -5.664  6.88975 14.55763 -9.11674   0.014
 3.38 2.25 -5.676 -5.671 -5.663 -5.649 -5.629  7.12403 14.83445 -8.83997   0.018
 3.38 2.50 -5.639 -5.635 -5.628 -5.613 -5.594  7.35832 15.11126 -8.56320   0.023
 3.38 2.75 -5.602 -5.598 -5.591 -5.577 -5.559  7.58515 15.38608 -8.28835   0.030
 3.38 3.00 -5.564 -5.560 -5.554 -5.541 -5.523  7.80645 15.65877 -8.01556   0.039
 3.38 3.20 -5.531 -5.528 -5.522 -5.511 -5.494  7.97823 15.87386 -7.80045   0.047
 3.38 3.40 -5.498 -5.495 -5.490 -5.479 -5.464  8.14710 16.08685 -7.58746   0.057
 3.38 3.60 -5.462 -5.460 -5.455 -5.446 -5.432  8.31321 16.29765 -7.37672   0.069
 3.38 3.80 -5.424 -5.422 -5.419 -5.411 -5.398  8.47742 16.50660 -7.16785   0.084
 3.38 4.00 -5.384 -5.383 -5.380 -5.373 -5.362  8.63988 16.71391 -6.96059   0.101
 3.38 4.20 -5.347 -5.346 -5.343 -5.336 -5.326  8.80165 16.91977 -6.75463   0.122
 3.38 4.40 -5.307 -5.306 -5.303 -5.297 -5.287  8.96144 17.12458 -6.54974   0.147
 3.38 4.60 -5.265 -5.264 -5.261 -5.255 -5.246  9.11859 17.32842 -6.34594   0.176
 3.38 4.80 -5.222 -5.221 -5.218 -5.213 -5.203  9.27148 17.53157 -6.14289   0.210
 3.38 5.00 -5.177 -5.176 -5.173 -5.168 -5.159  9.42029 17.73408 -5.94044   0.249
 3.38 5.20 -5.131 -5.130 -5.128 -5.123 -5.114  9.56258 17.93605 -5.73840   0.294
 3.38 5.40 -5.084 -5.083 -5.081 -5.076 -5.067  9.70023 18.13764 -5.53673   0.344
 3.38 5.60 -5.035 -5.034 -5.032 -5.027 -5.019  9.83278 18.33888 -5.33547   0.401
 3.38 5.80 -4.983 -4.982 -4.980 -4.975 -4.967  9.96177 18.53988 -5.13447   0.465
 3.38 6.00 -4.928 -4.927 -4.925 -4.920 -4.913 10.08814 18.74068 -4.93367   0.538
 3.38 6.25 -4.854 -4.853 -4.851 -4.847 -4.840 10.24278 18.99146 -4.68288   0.642
 3.38 6.50 -4.773 -4.772 -4.771 -4.767 -4.760 10.39707 19.24205 -4.43227   0.767
 3.38 6.75 -4.687 -4.686 -4.684 -4.681 -4.675 10.55117 19.49247 -4.18179   0.916
 3.38 7.00 -4.594 -4.593 -4.592 -4.589 -4.583 10.70527 19.74280 -3.93144   1.094
 3.38 7.25 -4.497 -4.496 -4.495 -4.492 -4.487 10.86031 19.99308 -3.68127   1.308
 3.38 7.50 -4.396 -4.396 -4.394 -4.392 -4.387 11.01536 20.24329 -3.43109   1.563
 3.38 7.75 -4.295 -4.295 -4.294 -4.291 -4.287 11.16818 20.49343 -3.18090   1.864
 3.38 8.00 -4.196 -4.195 -4.194 -4.192 -4.188 11.31952 20.74351 -2.93070   2.219
 3.40-2.00 -5.742 -5.736 -5.724 -5.702 -5.675  3.97021 10.45984-13.21446   0.001
 3.40-1.50 -5.760 -5.753 -5.742 -5.719 -5.691  4.41280 10.95985-12.71444   0.001
 3.40-1.00 -5.781 -5.775 -5.763 -5.740 -5.711  4.83085 11.46000-12.21439   0.001
 3.40-0.50 -5.800 -5.794 -5.781 -5.758 -5.729  5.21958 11.96000-11.71444   0.002
 3.40 0.00 -5.805 -5.798 -5.786 -5.762 -5.732  5.57864 12.46045-11.21396   0.003
 3.40 0.50 -5.784 -5.778 -5.766 -5.743 -5.714  5.91551 12.96147-10.71287   0.004
 3.40 1.00 -5.739 -5.733 -5.722 -5.702 -5.676  6.24502 13.46494-10.20943   0.006
 3.40 1.25 -5.709 -5.703 -5.693 -5.675 -5.651  6.41409 13.71868 -9.95563   0.007
 3.40 1.50 -5.676 -5.671 -5.661 -5.644 -5.621  6.58827 13.97460 -9.69962   0.009
 3.40 1.75 -5.639 -5.634 -5.625 -5.609 -5.587  6.77405 14.23463 -9.43964   0.012
 3.40 2.00 -5.600 -5.595 -5.586 -5.570 -5.550  6.97123 14.49886 -9.17549   0.015
 3.40 2.25 -5.557 -5.553 -5.544 -5.529 -5.508  7.18525 14.76929 -8.90502   0.019
 3.40 2.50 -5.512 -5.508 -5.500 -5.485 -5.464  7.40773 15.04297 -8.63134   0.024
 3.40 2.75 -5.464 -5.460 -5.453 -5.439 -5.419  7.63833 15.31984 -8.35452   0.031
 3.40 3.00 -5.415 -5.412 -5.405 -5.392 -5.374  7.86894 15.59671 -8.07769   0.041
 3.40 3.20 -5.375 -5.372 -5.366 -5.354 -5.337  8.04967 15.81640 -7.85800   0.050
 3.40 3.40 -5.335 -5.332 -5.327 -5.317 -5.301  8.22751 16.03453 -7.63985   0.062
 3.40 3.60 -5.294 -5.292 -5.288 -5.278 -5.264  8.40152 16.25051 -7.42388   0.075
 3.40 3.80 -5.253 -5.251 -5.247 -5.239 -5.226  8.57152 16.46395 -7.21048   0.091
 3.40 4.00 -5.210 -5.208 -5.205 -5.198 -5.188  8.73838 16.67532 -6.99913   0.111
 3.40 4.20 -5.170 -5.168 -5.165 -5.159 -5.149  8.90241 16.88462 -6.78981   0.134
 3.40 4.40 -5.127 -5.126 -5.123 -5.117 -5.108  9.06437 17.09235 -6.58204   0.161
 3.40 4.60 -5.083 -5.081 -5.079 -5.073 -5.064  9.22481 17.29854 -6.37578   0.194
 3.40 4.80 -5.036 -5.034 -5.032 -5.027 -5.018  9.38365 17.50360 -6.17066   0.233
 3.40 5.00 -4.985 -4.984 -4.982 -4.977 -4.968  9.54033 17.70766 -5.96658   0.280
 3.40 5.20 -4.933 -4.932 -4.930 -4.925 -4.916  9.69379 17.91086 -5.76342   0.334
 3.40 5.40 -4.878 -4.877 -4.875 -4.870 -4.862  9.84349 18.11349 -5.56085   0.396
 3.40 5.60 -4.820 -4.820 -4.817 -4.813 -4.805  9.98841 18.31558 -5.35885   0.468
 3.40 5.80 -4.761 -4.760 -4.758 -4.754 -4.747 10.12802 18.51730 -5.15719   0.550
 3.40 6.00 -4.700 -4.699 -4.697 -4.693 -4.686 10.26316 18.71867 -4.95585   0.643
 3.40 6.25 -4.620 -4.619 -4.618 -4.614 -4.607 10.42554 18.96994 -4.70448   0.775
 3.40 6.50 -4.537 -4.536 -4.534 -4.531 -4.525 10.58354 19.22089 -4.45346   0.929
 3.40 6.75 -4.449 -4.449 -4.447 -4.444 -4.438 10.73770 19.47159 -4.20284   1.110
 3.40 7.00 -4.358 -4.357 -4.356 -4.353 -4.348 10.89070 19.72214 -3.95234   1.324
 3.40 7.25 -4.262 -4.262 -4.260 -4.258 -4.253 11.04292 19.97262 -3.70187   1.577
 3.40 7.50 -4.164 -4.163 -4.162 -4.160 -4.156 11.19507 20.22298 -3.45149   1.879
 3.40 7.75 -4.064 -4.064 -4.063 -4.060 -4.057 11.34719 20.47320 -3.20126   2.239
 3.40 8.00 -3.964 -3.964 -3.963 -3.961 -3.957 11.49927 20.72329 -2.95117   2.667
 3.42-2.00 -5.681 -5.674 -5.663 -5.641 -5.613  3.99401 10.43996-13.23441   0.001
 3.42-1.50 -5.683 -5.677 -5.665 -5.643 -5.615  4.47159 10.93992-12.73448   0.001
 3.42-1.00 -5.691 -5.684 -5.672 -5.650 -5.621  4.92722 11.43996-12.23441   0.001
 3.42-0.50 -5.697 -5.691 -5.679 -5.656 -5.626  5.35774 11.93997-11.73448   0.002
 3.42 0.00 -5.693 -5.687 -5.674 -5.651 -5.622  5.76125 12.44012-11.23418   0.004
 3.42 0.50 -5.670 -5.663 -5.652 -5.630 -5.602  6.13386 12.94052-10.73377   0.005
 3.42 1.00 -5.624 -5.618 -5.608 -5.588 -5.563  6.47958 13.44185-10.23247   0.008
 3.42 1.25 -5.593 -5.588 -5.578 -5.559 -5.535  6.64521 13.69333 -9.98102   0.010
 3.42 1.50 -5.559 -5.553 -5.544 -5.526 -5.503  6.81084 13.94576 -9.72862   0.012
 3.42 1.75 -5.519 -5.514 -5.505 -5.488 -5.466  6.97788 14.20019 -9.47420   0.014
 3.42 2.00 -5.477 -5.472 -5.463 -5.446 -5.424  7.14706 14.45713 -9.21724   0.017
 3.42 2.25 -5.430 -5.426 -5.417 -5.401 -5.380  7.32582 14.71841 -8.95598   0.021
 3.42 2.50 -5.382 -5.377 -5.369 -5.354 -5.333  7.51415 14.98403 -8.69037   0.027
 3.42 2.75 -5.329 -5.325 -5.318 -5.303 -5.284  7.71805 15.25601 -8.41829   0.034
 3.42 3.00 -5.274 -5.270 -5.264 -5.251 -5.233  7.93161 15.53058 -8.14369   0.043
 3.42 3.20 -5.227 -5.224 -5.218 -5.206 -5.190  8.11112 15.75204 -7.92231   0.053
 3.42 3.40 -5.178 -5.176 -5.171 -5.160 -5.145  8.29064 15.97349 -7.70093   0.065
 3.42 3.60 -5.129 -5.127 -5.122 -5.114 -5.100  8.46953 16.19399 -7.48046   0.080
 3.42 3.80 -5.079 -5.077 -5.073 -5.066 -5.054  8.64647 16.41218 -7.26223   0.097
 3.42 4.00 -5.028 -5.027 -5.024 -5.017 -5.007  8.82164 16.62859 -7.04576   0.119
 3.42 4.20 -4.980 -4.979 -4.976 -4.970 -4.961  8.99207 16.84226 -6.83210   0.145
 3.42 4.40 -4.931 -4.930 -4.928 -4.922 -4.913  9.15948 17.05390 -6.62047   0.176
 3.42 4.60 -4.881 -4.880 -4.878 -4.872 -4.864  9.32382 17.26347 -6.41090   0.213
 3.42 4.80 -4.830 -4.829 -4.826 -4.821 -4.813  9.48563 17.47137 -6.20298   0.257
 3.42 5.00 -4.775 -4.774 -4.772 -4.767 -4.759  9.64513 17.67779 -5.99654   0.308
 3.42 5.20 -4.719 -4.718 -4.716 -4.711 -4.704  9.80319 17.88294 -5.79143   0.369
 3.42 5.40 -4.659 -4.658 -4.656 -4.652 -4.645  9.95888 18.08717 -5.58722   0.442
 3.42 5.60 -4.596 -4.595 -4.594 -4.589 -4.582 10.11204 18.29051 -5.38384   0.527
 3.42 5.80 -4.531 -4.530 -4.528 -4.524 -4.517 10.26177 18.49324 -5.18103   0.627
 3.42 6.00 -4.463 -4.462 -4.460 -4.456 -4.450 10.40790 18.69539 -4.97881   0.742
 3.42 6.25 -4.376 -4.375 -4.373 -4.370 -4.364 10.58308 18.94738 -4.72677   0.908
 3.42 6.50 -4.287 -4.286 -4.285 -4.282 -4.276 10.75159 19.19893 -4.47522   1.102
 3.42 6.75 -4.197 -4.196 -4.195 -4.192 -4.187 10.91304 19.45024 -4.22398   1.327
 3.42 7.00 -4.105 -4.104 -4.103 -4.100 -4.096 11.07004 19.70122 -3.97306   1.590
 3.42 7.25 -4.012 -4.011 -4.010 -4.007 -4.003 11.22324 19.95176 -3.72243   1.897
 3.42 7.50 -3.917 -3.916 -3.915 -3.913 -3.909 11.37475 20.20222 -3.47198   2.258
 3.42 7.75 -3.821 -3.820 -3.820 -3.817 -3.814 11.52541 20.45265 -3.22164   2.686
 3.42 8.00 -3.725 -3.724 -3.723 -3.721 -3.718 11.67495 20.70303 -2.97143   3.191
 3.44-2.00 -5.638 -5.632 -5.622 -5.601 -5.574  3.98958 10.41996-13.25438   0.001
 3.44-1.50 -5.631 -5.625 -5.613 -5.591 -5.563  4.48073 10.91991-12.75449   0.001
 3.44-1.00 -5.625 -5.618 -5.606 -5.584 -5.555  4.96530 11.41996-12.25438   0.001
 3.44-0.50 -5.618 -5.611 -5.599 -5.576 -5.547  5.43217 11.91991-11.75449   0.002
 3.44 0.00 -5.603 -5.597 -5.584 -5.562 -5.533  5.87431 12.41996-11.25430   0.004
 3.44 0.50 -5.571 -5.565 -5.554 -5.532 -5.505  6.29003 12.92012-10.75424   0.006
 3.44 1.00 -5.518 -5.512 -5.501 -5.481 -5.457  6.67559 13.42062-10.25368   0.010
 3.44 1.25 -5.482 -5.477 -5.466 -5.447 -5.423  6.85645 13.67120-10.00305   0.012
 3.44 1.50 -5.442 -5.437 -5.427 -5.408 -5.385  7.03141 13.92221 -9.75203   0.015
 3.44 1.75 -5.397 -5.391 -5.382 -5.364 -5.342  7.20002 14.17408 -9.50022   0.018
 3.44 2.00 -5.348 -5.343 -5.333 -5.316 -5.294  7.36773 14.42716 -9.24726   0.022
 3.44 2.25 -5.295 -5.290 -5.281 -5.265 -5.244  7.53491 14.68240 -8.99196   0.027
 3.44 2.50 -5.239 -5.235 -5.227 -5.212 -5.192  7.70209 14.94047 -8.73377   0.032
 3.44 2.75 -5.180 -5.177 -5.170 -5.156 -5.137  7.87706 15.20356 -8.47075   0.039
 3.44 3.00 -5.120 -5.116 -5.110 -5.098 -5.081  8.05956 15.47114 -8.20329   0.049
 3.44 3.20 -5.069 -5.066 -5.060 -5.050 -5.034  8.21530 15.69014 -7.98444   0.058
 3.44 3.40 -5.016 -5.013 -5.009 -4.999 -4.985  8.37704 15.91006 -7.76456   0.070
