 ROSSELAND MASS ABSORPTION COEFFICIENTS [-0.2]
 logT logP  0km/s  1km/s  2km/s  4km/s  8km/s  log Ne   log Na  log rho IPloCM-1
 3.32-2.00 -5.320 -5.310 -5.293 -5.266 -5.232  5.12024 10.54008-13.12884   0.002
 3.32-1.50 -5.347 -5.335 -5.318 -5.288 -5.254  5.54802 11.04100-12.62801   0.003
 3.32-1.00 -5.384 -5.371 -5.352 -5.322 -5.287  5.95828 11.54394-12.12511   0.005
 3.32-0.50 -5.422 -5.409 -5.389 -5.358 -5.323  6.36324 12.05231-11.61690   0.008
 3.32 0.00 -5.446 -5.432 -5.412 -5.381 -5.346  6.78197 12.57345-11.09550   0.013
 3.32 0.50 -5.445 -5.431 -5.411 -5.380 -5.344  7.22402 13.11461-10.55440   0.021
 3.32 1.00 -5.427 -5.414 -5.394 -5.362 -5.326  7.65830 13.66811-10.00087   0.035
 3.32 1.25 -5.416 -5.403 -5.383 -5.352 -5.316  7.85808 13.94321 -9.72583   0.044
 3.32 1.50 -5.405 -5.391 -5.372 -5.341 -5.306  8.04688 14.21643 -9.45272   0.055
 3.32 1.75 -5.390 -5.377 -5.358 -5.329 -5.294  8.22347 14.48531 -9.18367   0.067
 3.32 2.00 -5.373 -5.361 -5.342 -5.314 -5.280  8.39322 14.75089 -8.91793   0.082
 3.32 2.25 -5.351 -5.339 -5.322 -5.295 -5.262  8.55658 15.01312 -8.65578   0.099
 3.32 2.50 -5.325 -5.313 -5.296 -5.271 -5.240  8.71933 15.27277 -8.39621   0.119
 3.32 2.75 -5.290 -5.279 -5.264 -5.240 -5.211  8.88174 15.53022 -8.13880   0.143
 3.32 3.00 -5.249 -5.239 -5.224 -5.202 -5.174  9.04415 15.78597 -7.88306   0.173
 3.32 3.20 -5.209 -5.199 -5.186 -5.165 -5.138  9.17668 15.98951 -7.67951   0.202
 3.32 3.40 -5.163 -5.154 -5.142 -5.122 -5.097  9.30921 16.19239 -7.47662   0.235
 3.32 3.60 -5.111 -5.103 -5.092 -5.073 -5.050  9.44165 16.39465 -7.27432   0.274
 3.32 3.80 -5.053 -5.045 -5.035 -5.018 -4.996  9.57359 16.59650 -7.07244   0.319
 3.32 4.00 -4.988 -4.982 -4.973 -4.958 -4.937  9.70501 16.79796 -6.87095   0.371
 3.32 4.20 -4.926 -4.920 -4.911 -4.896 -4.876  9.83252 16.99908 -6.66984   0.430
 3.32 4.40 -4.858 -4.853 -4.844 -4.830 -4.809  9.95710 17.20000 -6.46893   0.496
 3.32 4.60 -4.788 -4.782 -4.774 -4.760 -4.739 10.07820 17.40075 -6.26820   0.570
 3.32 4.80 -4.714 -4.709 -4.701 -4.686 -4.666 10.19582 17.60139 -6.06759   0.652
 3.32 5.00 -4.633 -4.628 -4.620 -4.606 -4.585 10.31048 17.80188 -5.86710   0.744
 3.32 5.20 -4.546 -4.540 -4.532 -4.518 -4.498 10.42234 18.00217 -5.66675   0.846
 3.32 5.40 -4.447 -4.442 -4.434 -4.421 -4.401 10.53213 18.20243 -5.46646   0.960
 3.32 5.60 -4.336 -4.331 -4.324 -4.311 -4.292 10.63993 18.40267 -5.26620   1.087
 3.32 5.80 -4.209 -4.205 -4.198 -4.186 -4.168 10.74631 18.60291 -5.06599   1.229
 3.32 6.00 -4.063 -4.059 -4.053 -4.042 -4.026 10.85138 18.80312 -4.86582   1.387
 3.32 6.25 -3.847 -3.844 -3.839 -3.829 -3.815 10.98126 19.05316 -4.61577   1.611
 3.32 6.50 -3.584 -3.582 -3.578 -3.570 -3.558 11.10992 19.30320 -4.36573   1.868
 3.32 6.75 -3.266 -3.264 -3.261 -3.255 -3.246 11.23762 19.55333 -4.11561   2.164
 3.32 7.00 -3.061 -3.060 -3.057 -3.052 -3.045 11.36455 19.80346 -3.86550   2.504
 3.32 7.25 -2.950 -2.948 -2.946 -2.941 -2.935 11.49088 20.05356 -3.61544   2.896
 3.32 7.50 -2.843 -2.841 -2.839 -2.835 -2.829 11.61658 20.30363 -3.36542   3.348
 3.32 7.75 -2.740 -2.738 -2.736 -2.733 -2.728 11.74168 20.55364 -3.11544   3.867
 3.32 8.00 -2.641 -2.639 -2.637 -2.634 -2.629 11.86617 20.80359 -2.86550   4.462
 3.34-2.00 -5.251 -5.242 -5.226 -5.200 -5.166  5.18526 10.51970-13.14923   0.002
 3.34-1.50 -5.267 -5.256 -5.239 -5.211 -5.175  5.62900 11.01995-12.64898   0.003
 3.34-1.00 -5.283 -5.271 -5.252 -5.221 -5.184  6.06296 11.52088-12.14807   0.005
 3.34-0.50 -5.303 -5.290 -5.269 -5.236 -5.198  6.47900 12.02366-11.64532   0.009
 3.34 0.00 -5.317 -5.302 -5.280 -5.247 -5.207  6.88587 12.53173-11.13727   0.014
 3.34 0.50 -5.306 -5.291 -5.269 -5.234 -5.195  7.29951 13.05231-10.61654   0.023
 3.34 1.00 -5.260 -5.244 -5.222 -5.187 -5.147  7.73448 13.59306-10.07588   0.037
 3.34 1.25 -5.226 -5.211 -5.189 -5.154 -5.115  7.95208 13.86975 -9.79923   0.048
 3.34 1.50 -5.191 -5.176 -5.154 -5.120 -5.081  8.16967 14.14644 -9.52259   0.062
 3.34 1.75 -5.156 -5.141 -5.120 -5.087 -5.049  8.37239 14.42163 -9.24737   0.078
 3.34 2.00 -5.123 -5.109 -5.088 -5.057 -5.020  8.56455 14.69504 -8.97388   0.097
 3.34 2.25 -5.091 -5.077 -5.057 -5.027 -4.991  8.74371 14.96414 -8.70479   0.120
 3.34 2.50 -5.059 -5.045 -5.026 -4.998 -4.963  8.91503 15.22994 -8.43902   0.146
 3.34 2.75 -5.024 -5.011 -4.993 -4.966 -4.933  9.07929 15.49238 -8.17665   0.176
 3.34 3.00 -4.986 -4.974 -4.957 -4.931 -4.900  9.24130 15.75220 -7.91686   0.212
 3.34 3.20 -4.950 -4.939 -4.923 -4.899 -4.869  9.36960 15.95835 -7.71066   0.246
 3.34 3.40 -4.911 -4.900 -4.885 -4.863 -4.835  9.49790 16.16341 -7.50555   0.285
 3.34 3.60 -4.865 -4.856 -4.842 -4.821 -4.795  9.62703 16.36744 -7.30147   0.331
 3.34 3.80 -4.813 -4.805 -4.793 -4.774 -4.749  9.75699 16.57074 -7.09814   0.385
 3.34 4.00 -4.755 -4.749 -4.739 -4.722 -4.698  9.88694 16.77335 -6.89551   0.447
 3.34 4.20 -4.701 -4.694 -4.685 -4.668 -4.645 10.01662 16.97531 -6.69353   0.519
 3.34 4.40 -4.642 -4.636 -4.626 -4.610 -4.588 10.14586 17.17693 -6.49192   0.602
 3.34 4.60 -4.583 -4.577 -4.568 -4.552 -4.530 10.27350 17.37827 -6.29065   0.697
 3.34 4.80 -4.524 -4.518 -4.509 -4.493 -4.471 10.39795 17.57940 -6.08959   0.804
 3.34 5.00 -4.462 -4.456 -4.448 -4.432 -4.411 10.51983 17.78032 -5.88874   0.925
 3.34 5.20 -4.401 -4.395 -4.387 -4.372 -4.350 10.63810 17.98097 -5.68809   1.060
 3.34 5.40 -4.337 -4.332 -4.323 -4.309 -4.288 10.75363 18.18150 -5.48755   1.211
 3.34 5.60 -4.272 -4.267 -4.259 -4.245 -4.224 10.86634 18.38193 -5.28709   1.379
 3.34 5.80 -4.205 -4.200 -4.193 -4.179 -4.159 10.97680 18.58228 -5.08670   1.566
 3.34 6.00 -4.137 -4.132 -4.125 -4.112 -4.092 11.08529 18.78255 -4.88639   1.775
 3.34 6.25 -4.051 -4.046 -4.039 -4.027 -4.008 11.21867 19.03270 -4.63622   2.069
 3.34 6.50 -3.963 -3.959 -3.952 -3.940 -3.922 11.35005 19.28285 -4.38605   2.407
 3.34 6.75 -3.874 -3.870 -3.864 -3.853 -3.836 11.47975 19.53305 -4.13589   2.795
 3.34 7.00 -3.785 -3.781 -3.776 -3.765 -3.749 11.60821 19.78326 -3.88572   3.240
 3.34 7.25 -3.696 -3.692 -3.687 -3.677 -3.662 11.73575 20.03328 -3.63568   3.752
 3.34 7.50 -3.607 -3.603 -3.598 -3.588 -3.575 11.86243 20.28330 -3.38563   4.341
 3.34 7.75 -3.517 -3.514 -3.509 -3.500 -3.488 11.98840 20.53337 -3.13553   5.018
 3.34 8.00 -3.428 -3.425 -3.420 -3.412 -3.401 12.11361 20.78348 -2.88539   5.796
 3.36-2.00 -5.145 -5.136 -5.121 -5.095 -5.062  5.31112 10.49969-13.16935   0.002
 3.36-1.50 -5.190 -5.181 -5.164 -5.137 -5.102  5.70919 10.99970-12.66918   0.004
 3.36-1.00 -5.209 -5.198 -5.180 -5.150 -5.113  6.13862 11.50010-12.16896   0.006
 3.36-0.50 -5.213 -5.201 -5.181 -5.148 -5.108  6.57229 12.00087-11.66797   0.010
 3.36 0.00 -5.207 -5.193 -5.171 -5.136 -5.094  6.99269 12.50379-11.16520   0.016
 3.36 0.50 -5.179 -5.163 -5.140 -5.103 -5.060  7.40243 13.01199-10.65699   0.025
 3.36 1.00 -5.113 -5.097 -5.073 -5.035 -4.992  7.81478 13.53314-10.13579   0.040
 3.36 1.25 -5.066 -5.049 -5.025 -4.988 -4.945  8.02865 13.80168 -9.86722   0.051
 3.36 1.50 -5.011 -4.994 -4.970 -4.933 -4.891  8.24403 14.07408 -9.59482   0.066
 3.36 1.75 -4.951 -4.934 -4.911 -4.876 -4.834  8.46050 14.35088 -9.31808   0.085
 3.36 2.00 -4.891 -4.875 -4.852 -4.818 -4.778  8.67697 14.62767 -9.04134   0.108
 3.36 2.25 -4.833 -4.818 -4.796 -4.763 -4.725  8.88064 14.90271 -8.76627   0.137
 3.36 2.50 -4.781 -4.766 -4.745 -4.714 -4.677  9.07445 15.17580 -8.49309   0.171
 3.36 2.75 -4.731 -4.717 -4.697 -4.667 -4.632  9.25518 15.44485 -8.22400   0.211
 3.36 3.00 -4.684 -4.671 -4.652 -4.624 -4.591  9.42749 15.71063 -7.95821   0.257
 3.36 3.20 -4.645 -4.633 -4.615 -4.589 -4.557  9.55933 15.92061 -7.74826   0.299
 3.36 3.40 -4.606 -4.594 -4.578 -4.553 -4.523  9.68922 16.12894 -7.53995   0.347
 3.36 3.60 -4.563 -4.552 -4.538 -4.515 -4.486  9.81705 16.33570 -7.33316   0.403
 3.36 3.80 -4.515 -4.506 -4.493 -4.472 -4.445  9.94428 16.54129 -7.12752   0.466
 3.36 4.00 -4.463 -4.456 -4.445 -4.427 -4.402 10.07151 16.74578 -6.92300   0.540
 3.36 4.20 -4.414 -4.408 -4.397 -4.379 -4.355 10.19921 16.94928 -6.71954   0.625
 3.36 4.40 -4.361 -4.354 -4.345 -4.328 -4.304 10.32691 17.15215 -6.51672   0.724
 3.36 4.60 -4.306 -4.300 -4.290 -4.274 -4.251 10.45450 17.35444 -6.31449   0.838
 3.36 4.80 -4.250 -4.244 -4.235 -4.219 -4.197 10.58159 17.55634 -6.11263   0.970
 3.36 5.00 -4.190 -4.185 -4.176 -4.161 -4.138 10.70817 17.75785 -5.91116   1.123
 3.36 5.20 -4.129 -4.124 -4.116 -4.101 -4.080 10.83177 17.95900 -5.71002   1.295
 3.36 5.40 -4.066 -4.061 -4.054 -4.039 -4.018 10.95306 18.15993 -5.50910   1.489
 3.36 5.60 -4.001 -3.996 -3.989 -3.975 -3.955 11.07168 18.36068 -5.30836   1.707
 3.36 5.80 -3.934 -3.930 -3.923 -3.910 -3.890 11.18750 18.56130 -5.10776   1.950
 3.36 6.00 -3.865 -3.861 -3.855 -3.843 -3.824 11.30081 18.76178 -4.90728   2.222
 3.36 6.25 -3.778 -3.775 -3.769 -3.757 -3.739 11.43894 19.01215 -4.65685   2.605
 3.36 6.50 -3.690 -3.687 -3.681 -3.670 -3.653 11.57415 19.26245 -4.40649   3.044
 3.36 6.75 -3.601 -3.598 -3.593 -3.582 -3.567 11.70691 19.51274 -4.15616   3.547
 3.36 7.00 -3.512 -3.509 -3.504 -3.494 -3.480 11.83778 19.76298 -3.90588   4.124
 3.36 7.25 -3.422 -3.420 -3.415 -3.406 -3.393 11.96712 20.01307 -3.65580   4.786
 3.36 7.50 -3.333 -3.331 -3.326 -3.318 -3.306 12.09517 20.26316 -3.40572   5.546
 3.36 7.75 -3.245 -3.242 -3.238 -3.231 -3.220 12.22220 20.51329 -3.15563   6.420
 3.36 8.00 -3.157 -3.154 -3.151 -3.144 -3.134 12.34811 20.76343 -2.90553   7.422
 3.38-2.00 -4.976 -4.968 -4.953 -4.929 -4.897  5.53441 10.47958-13.18936   0.003
 3.38-1.50 -5.061 -5.052 -5.036 -5.009 -4.975  5.87483 10.97959-12.68931   0.004
 3.38-1.00 -5.117 -5.107 -5.090 -5.061 -5.024  6.24601 11.47972-12.18923   0.006
 3.38-0.50 -5.137 -5.126 -5.108 -5.076 -5.036  6.65389 11.98005-11.68888   0.010
 3.38 0.00 -5.124 -5.111 -5.091 -5.056 -5.013  7.08027 12.48101-11.18796   0.017
 3.38 0.50 -5.078 -5.064 -5.041 -5.003 -4.958  7.50174 12.98403-10.68487   0.027
 3.38 1.00 -4.989 -4.973 -4.948 -4.909 -4.862  7.91397 13.49290-10.17614   0.044
 3.38 1.25 -4.927 -4.911 -4.886 -4.847 -4.801  8.12029 13.75192 -9.91701   0.056
 3.38 1.50 -4.855 -4.838 -4.812 -4.773 -4.728  8.32695 14.01494 -9.65384   0.071
 3.38 1.75 -4.776 -4.759 -4.734 -4.696 -4.652  8.53925 14.28437 -9.38453   0.091
 3.38 2.00 -4.692 -4.675 -4.651 -4.614 -4.571  8.75282 14.55739 -9.11160   0.116
 3.38 2.25 -4.607 -4.590 -4.567 -4.533 -4.492  8.96733 14.83416 -8.83479   0.148
 3.38 2.50 -4.525 -4.509 -4.487 -4.454 -4.415  9.18184 15.11093 -8.55799   0.189
 3.38 2.75 -4.448 -4.433 -4.413 -4.382 -4.345  9.38502 15.38579 -8.28315   0.239
 3.38 3.00 -4.379 -4.366 -4.347 -4.318 -4.283  9.57898 15.65858 -8.01042   0.299
 3.38 3.20 -4.327 -4.315 -4.298 -4.271 -4.237  9.72448 15.87364 -7.79533   0.353
 3.38 3.40 -4.280 -4.269 -4.253 -4.227 -4.196  9.86451 16.08660 -7.58235   0.415
 3.38 3.60 -4.233 -4.223 -4.209 -4.185 -4.155  9.99876 16.29738 -7.37160   0.485
 3.38 3.80 -4.185 -4.177 -4.164 -4.143 -4.115 10.12954 16.50633 -7.16273   0.564
 3.38 4.00 -4.137 -4.130 -4.119 -4.101 -4.075 10.25792 16.71366 -6.95546   0.654
 3.38 4.20 -4.092 -4.086 -4.076 -4.059 -4.034 10.38413 16.91951 -6.74954   0.756
 3.38 4.40 -4.045 -4.040 -4.030 -4.014 -3.990 10.51016 17.12433 -6.54466   0.874
 3.38 4.60 -3.998 -3.993 -3.984 -3.968 -3.945 10.63610 17.32817 -6.34080   1.011
 3.38 4.80 -3.949 -3.944 -3.936 -3.921 -3.898 10.76197 17.53132 -6.13766   1.168
 3.38 5.00 -3.896 -3.891 -3.883 -3.869 -3.847 10.88767 17.73384 -5.93517   1.350
 3.38 5.20 -3.841 -3.837 -3.829 -3.815 -3.794 11.01287 17.93580 -5.73322   1.559
 3.38 5.40 -3.783 -3.778 -3.771 -3.758 -3.738 11.13729 18.13739 -5.53164   1.799
 3.38 5.60 -3.721 -3.717 -3.710 -3.697 -3.678 11.26024 18.33863 -5.33036   2.073
 3.38 5.80 -3.656 -3.652 -3.646 -3.634 -3.616 11.38069 18.53964 -5.12931   2.381
 3.38 6.00 -3.589 -3.586 -3.580 -3.569 -3.551 11.49900 18.74044 -4.92849   2.728
 3.38 6.25 -3.503 -3.500 -3.495 -3.484 -3.468 11.64289 18.99121 -4.67781   3.220
 3.38 6.50 -3.416 -3.413 -3.408 -3.398 -3.383 11.78326 19.24179 -4.42725   3.785
 3.38 6.75 -3.327 -3.325 -3.320 -3.311 -3.297 11.92029 19.49223 -4.17671   4.431
 3.38 7.00 -3.239 -3.236 -3.232 -3.224 -3.211 12.05461 19.74257 -3.92628   5.172
 3.38 7.25 -3.150 -3.147 -3.143 -3.136 -3.124 12.18654 19.99284 -3.67613   6.021
 3.38 7.50 -3.061 -3.059 -3.055 -3.048 -3.038 12.31660 20.24304 -3.42597   6.994
 3.38 7.75 -2.973 -2.971 -2.968 -2.961 -2.952 12.44528 20.49319 -3.17577   8.111
 3.38 8.00 -2.887 -2.884 -2.881 -2.875 -2.867 12.57241 20.74327 -2.92555   9.389
 3.40-2.00 -4.783 -4.776 -4.763 -4.740 -4.712  5.78183 10.45954-13.20936   0.004
 3.40-1.50 -4.883 -4.875 -4.860 -4.835 -4.803  6.11059 10.95957-12.70930   0.005
 3.40-1.00 -4.970 -4.961 -4.944 -4.916 -4.881  6.44107 11.45969-12.20929   0.008
 3.40-0.50 -5.028 -5.018 -5.000 -4.969 -4.930  6.79176 11.95976-11.70930   0.012
 3.40 0.00 -5.040 -5.029 -5.009 -4.975 -4.932  7.17667 12.46015-11.20887   0.018
 3.40 0.50 -4.997 -4.984 -4.962 -4.925 -4.879  7.58939 12.96118-10.70774   0.030
 3.40 1.00 -4.893 -4.879 -4.855 -4.816 -4.768  8.00775 13.46464-10.20433   0.048
 3.40 1.25 -4.819 -4.804 -4.780 -4.740 -4.692  8.21443 13.71841 -9.95059   0.061
 3.40 1.50 -4.730 -4.714 -4.690 -4.650 -4.602  8.42111 13.97437 -9.69465   0.077
 3.40 1.75 -4.631 -4.615 -4.590 -4.552 -4.505  8.62807 14.23439 -9.43461   0.098
 3.40 2.00 -4.523 -4.507 -4.482 -4.445 -4.399  8.83550 14.49859 -9.17037   0.124
 3.40 2.25 -4.414 -4.398 -4.375 -4.339 -4.296  9.04746 14.76894 -8.90000   0.158
 3.40 2.50 -4.306 -4.291 -4.269 -4.235 -4.194  9.25959 15.04258 -8.62635   0.202
 3.40 2.75 -4.202 -4.188 -4.168 -4.137 -4.098  9.47182 15.31948 -8.34944   0.258
 3.40 3.00 -4.105 -4.092 -4.074 -4.046 -4.010  9.68404 15.59638 -8.07253   0.330
 3.40 3.20 -4.033 -4.022 -4.006 -3.979 -3.945  9.84588 15.81608 -7.85283   0.398
 3.40 3.40 -3.968 -3.958 -3.943 -3.919 -3.888 10.00210 16.03422 -7.63470   0.476
 3.40 3.60 -3.908 -3.899 -3.886 -3.864 -3.835 10.15127 16.25021 -7.41874   0.565
 3.40 3.80 -3.852 -3.845 -3.834 -3.814 -3.787 10.29354 16.46366 -7.20532   0.665
 3.40 4.00 -3.800 -3.794 -3.784 -3.767 -3.742 10.43040 16.67505 -6.99396   0.779
 3.40 4.20 -3.754 -3.749 -3.740 -3.724 -3.701 10.56186 16.88434 -6.78466   0.906
 3.40 4.40 -3.709 -3.704 -3.696 -3.681 -3.659 10.69073 17.09207 -6.57693   1.051
 3.40 4.60 -3.666 -3.662 -3.654 -3.640 -3.619 10.81700 17.29827 -6.37080   1.216
 3.40 4.80 -3.623 -3.619 -3.612 -3.599 -3.578 10.94215 17.50334 -6.16580   1.404
 3.40 5.00 -3.578 -3.574 -3.567 -3.554 -3.534 11.06670 17.70740 -5.96178   1.621
 3.40 5.20 -3.532 -3.528 -3.521 -3.509 -3.490 11.19115 17.91060 -5.75849   1.871
 3.40 5.40 -3.481 -3.477 -3.471 -3.459 -3.441 11.31513 18.11322 -5.55580   2.158
 3.40 5.60 -3.426 -3.423 -3.417 -3.406 -3.388 11.43862 18.31532 -5.35374   2.487
 3.40 5.80 -3.367 -3.364 -3.359 -3.348 -3.331 11.56120 18.51705 -5.15210   2.864
 3.40 6.00 -3.305 -3.302 -3.297 -3.287 -3.271 11.68278 18.71842 -4.95078   3.294
 3.40 6.25 -3.224 -3.221 -3.217 -3.207 -3.193 11.83157 18.96968 -4.69947   3.910
 3.40 6.50 -3.140 -3.137 -3.133 -3.124 -3.111 11.97722 19.22063 -4.44843   4.624
 3.40 6.75 -3.054 -3.051 -3.047 -3.039 -3.027 12.11908 19.47134 -4.19756   5.444
 3.40 7.00 -2.966 -2.964 -2.961 -2.953 -2.942 12.25768 19.72189 -3.94692   6.386
 3.40 7.25 -2.879 -2.877 -2.874 -2.867 -2.857 12.39307 19.97236 -3.69664   7.464
 3.40 7.50 -2.791 -2.790 -2.787 -2.781 -2.772 12.52595 20.22272 -3.44636   8.698
 3.40 7.75 -2.705 -2.703 -2.700 -2.695 -2.687 12.65691 20.47294 -3.19607  10.113
 3.40 8.00 -2.619 -2.618 -2.615 -2.610 -2.603 12.78576 20.72305 -2.94577  11.729
 3.42-2.00 -4.609 -4.602 -4.591 -4.570 -4.544  5.98798 10.43965-13.22930   0.005
 3.42-1.50 -4.697 -4.690 -4.677 -4.654 -4.624  6.34282 10.93962-12.72932   0.007
 3.42-1.00 -4.789 -4.781 -4.766 -4.740 -4.706  6.67642 11.43965-12.22930   0.010
 3.42-0.50 -4.868 -4.858 -4.841 -4.812 -4.774  7.00303 11.93972-11.72932   0.015
 3.42 0.00 -4.912 -4.901 -4.882 -4.849 -4.807  7.34025 12.43981-11.22907   0.022
 3.42 0.50 -4.898 -4.886 -4.864 -4.828 -4.781  7.70492 12.94027-10.72862   0.033
 3.42 1.00 -4.806 -4.793 -4.770 -4.731 -4.680  8.10106 13.44154-10.22738   0.052
 3.42 1.25 -4.728 -4.715 -4.692 -4.652 -4.601  8.30627 13.69303 -9.97595   0.066
 3.42 1.50 -4.632 -4.619 -4.595 -4.556 -4.505  8.51215 13.94552 -9.72354   0.084
 3.42 1.75 -4.519 -4.505 -4.482 -4.443 -4.394  8.71817 14.19992 -9.46910   0.106
 3.42 2.00 -4.393 -4.379 -4.356 -4.318 -4.271  8.92469 14.45682 -9.21211   0.135
 3.42 2.25 -4.260 -4.246 -4.224 -4.188 -4.143  9.13201 14.71812 -8.95087   0.171
 3.42 2.50 -4.124 -4.111 -4.090 -4.056 -4.014  9.34044 14.98376 -8.68529   0.217
 3.42 2.75 -3.995 -3.982 -3.963 -3.933 -3.894  9.55201 15.25576 -8.41321   0.277
 3.42 3.00 -3.872 -3.860 -3.844 -3.815 -3.780  9.76358 15.53033 -8.13859   0.353
 3.42 3.20 -3.780 -3.770 -3.755 -3.730 -3.697  9.93214 15.75174 -7.91716   0.429
 3.42 3.40 -3.695 -3.687 -3.673 -3.650 -3.620 10.09963 15.97315 -7.69574   0.520
 3.42 3.60 -3.617 -3.609 -3.597 -3.577 -3.550 10.26357 16.19365 -7.47526   0.629
 3.42 3.80 -3.545 -3.538 -3.528 -3.511 -3.486 10.42058 16.41190 -7.25705   0.753
 3.42 4.00 -3.480 -3.475 -3.466 -3.451 -3.428 10.57206 16.62839 -7.04063   0.896
 3.42 4.20 -3.424 -3.420 -3.412 -3.398 -3.377 10.71551 16.84202 -6.82699   1.057
 3.42 4.40 -3.374 -3.370 -3.363 -3.350 -3.330 10.85375 17.05363 -6.61538   1.239
 3.42 4.60 -3.328 -3.325 -3.319 -3.306 -3.288 10.98649 17.26317 -6.40580   1.444
 3.42 4.80 -3.286 -3.283 -3.277 -3.265 -3.247 11.11570 17.47108 -6.19786   1.676
 3.42 5.00 -3.245 -3.242 -3.236 -3.225 -3.207 11.24229 17.67752 -5.99140   1.939
 3.42 5.20 -3.204 -3.201 -3.195 -3.184 -3.168 11.36691 17.88267 -5.78626   2.238
 3.42 5.40 -3.160 -3.158 -3.152 -3.142 -3.126 11.49058 18.08689 -5.58205   2.581
 3.42 5.60 -3.114 -3.111 -3.106 -3.096 -3.081 11.61359 18.29022 -5.37874   2.973
 3.42 5.80 -3.063 -3.061 -3.056 -3.047 -3.032 11.73611 18.49295 -5.17603   3.424
 3.42 6.00 -3.009 -3.007 -3.002 -2.993 -2.980 11.85787 18.69513 -4.97388   3.939
 3.42 6.25 -2.936 -2.934 -2.930 -2.922 -2.909 12.00891 18.94730 -4.72177   4.687
 3.42 6.50 -2.859 -2.856 -2.853 -2.845 -2.833 12.15806 19.19893 -4.47019   5.564
 3.42 6.75 -2.777 -2.775 -2.772 -2.765 -2.754 12.30396 19.45008 -4.21907   6.583
 3.42 7.00 -2.694 -2.692 -2.689 -2.683 -2.673 12.44685 19.70096 -3.96819   7.761
 3.42 7.25 -2.609 -2.607 -2.605 -2.599 -2.590 12.58631 19.95168 -3.71745   9.112
 3.42 7.50 -2.524 -2.523 -2.520 -2.515 -2.507 12.72280 20.20222 -3.46686  10.662
 3.42 7.75 -2.439 -2.438 -2.435 -2.431 -2.424 12.85660 20.45258 -3.21644  12.437
 3.42 8.00 -2.356 -2.354 -2.352 -2.348 -2.341 12.98762 20.70278 -2.96617  14.462
 3.44-2.00 -4.476 -4.471 -4.460 -4.441 -4.417  6.12678 10.41963-13.24934   0.005
 3.44-1.50 -4.539 -4.532 -4.520 -4.499 -4.471  6.52453 10.91960-12.74934   0.008
 3.44-1.00 -4.613 -4.605 -4.592 -4.567 -4.536  6.89109 11.41963-12.24934   0.013
 3.44-0.50 -4.687 -4.678 -4.663 -4.635 -4.599  7.23147 11.91965-11.74934   0.019
 3.44 0.00 -4.742 -4.732 -4.713 -4.682 -4.640  7.55811 12.41979-11.24926   0.027
 3.44 0.50 -4.751 -4.739 -4.718 -4.682 -4.635  7.88734 12.91986-10.74909   0.040
 3.44 1.00 -4.687 -4.674 -4.651 -4.612 -4.560  8.23654 13.42045-10.24857   0.060
 3.44 1.25 -4.620 -4.607 -4.584 -4.544 -4.490  8.42293 13.67102 -9.99794   0.074
 3.44 1.50 -4.531 -4.517 -4.494 -4.454 -4.400  8.61563 13.92195 -9.74690   0.092
 3.44 1.75 -4.417 -4.404 -4.381 -4.342 -4.289  8.81458 14.17379 -9.49509   0.116
 3.44 2.00 -4.285 -4.272 -4.251 -4.213 -4.162  9.01662 14.42684 -9.24215   0.146
 3.44 2.25 -4.138 -4.126 -4.106 -4.070 -4.022  9.22043 14.68208 -8.98693   0.185
 3.44 2.50 -3.984 -3.973 -3.954 -3.921 -3.877  9.42619 14.94017 -8.72886   0.234
 3.44 2.75 -3.830 -3.820 -3.802 -3.772 -3.733  9.63375 15.20328 -8.46576   0.297
 3.44 3.00 -3.680 -3.671 -3.655 -3.628 -3.593  9.84286 15.47085 -8.19819   0.378
 3.44 3.20 -3.568 -3.560 -3.546 -3.522 -3.490 10.01174 15.68975 -7.97923   0.459
 3.44 3.40 -3.464 -3.456 -3.444 -3.423 -3.393 10.18062 15.90963 -7.75930   0.558
