 ROSSELAND MASS ABSORPTION COEFFICIENTS [-4.0]
 logT logP  0km/s  1km/s  2km/s  4km/s  8km/s  log Ne   log Na  log rho IPloCM-1
 3.32-2.00 -6.642 -6.639 -6.633 -6.623 -6.608  2.19838 10.54033-13.13395   0.001
 3.32-1.50 -6.673 -6.670 -6.665 -6.655 -6.641  2.54543 11.04139-12.63302   0.001
 3.32-1.00 -6.688 -6.686 -6.681 -6.671 -6.658  2.87944 11.54419-12.13024   0.001
 3.32-0.50 -6.681 -6.678 -6.673 -6.663 -6.649  3.21958 12.05231-11.62197   0.001
 3.32 0.00 -6.659 -6.656 -6.650 -6.639 -6.624  3.59351 12.57380-11.10062   0.001
 3.32 0.50 -6.633 -6.630 -6.624 -6.612 -6.595  4.02857 13.11494-10.55956   0.001
 3.32 1.00 -6.598 -6.595 -6.588 -6.575 -6.557  4.51733 13.66829-10.00603   0.001
 3.32 1.25 -6.575 -6.571 -6.565 -6.552 -6.532  4.76424 13.94330 -9.73096   0.001
 3.32 1.50 -6.548 -6.545 -6.538 -6.525 -6.506  5.01115 14.21643 -9.45780   0.002
 3.32 1.75 -6.518 -6.515 -6.509 -6.496 -6.477  5.24604 14.48542 -9.18895   0.002
 3.32 2.00 -6.487 -6.484 -6.478 -6.466 -6.448  5.47276 14.75113 -8.92336   0.003
 3.32 2.25 -6.453 -6.451 -6.445 -6.434 -6.417  5.69001 15.01336 -8.66105   0.004
 3.32 2.50 -6.418 -6.416 -6.411 -6.402 -6.386  5.90119 15.27300 -8.40132   0.005
 3.32 2.75 -6.381 -6.379 -6.375 -6.367 -6.353  6.10644 15.53044 -8.14382   0.006
 3.32 3.00 -6.343 -6.341 -6.338 -6.331 -6.319  6.31048 15.78618 -7.88807   0.007
 3.32 3.20 -6.311 -6.309 -6.307 -6.300 -6.290  6.47309 15.98972 -7.68460   0.009
 3.32 3.40 -6.278 -6.276 -6.274 -6.269 -6.260  6.63570 16.19260 -7.48177   0.011
 3.32 3.60 -6.245 -6.244 -6.242 -6.238 -6.229  6.79941 16.39489 -7.27951   0.013
 3.32 3.80 -6.213 -6.213 -6.211 -6.207 -6.199  6.96423 16.59677 -7.07764   0.016
 3.32 4.00 -6.181 -6.180 -6.179 -6.175 -6.168  7.12905 16.79824 -6.87615   0.019
 3.32 4.20 -6.151 -6.150 -6.148 -6.145 -6.138  7.29157 16.99933 -6.67499   0.023
 3.32 4.40 -6.120 -6.119 -6.118 -6.114 -6.108  7.45155 17.20022 -6.47405   0.027
 3.32 4.60 -6.088 -6.088 -6.086 -6.083 -6.077  7.60705 17.40096 -6.27331   0.033
 3.32 4.80 -6.056 -6.055 -6.054 -6.050 -6.044  7.75601 17.60159 -6.07271   0.039
 3.32 5.00 -6.021 -6.020 -6.019 -6.015 -6.009  7.89966 17.80209 -5.87225   0.046
 3.32 5.20 -5.982 -5.982 -5.980 -5.977 -5.971  8.03663 18.00238 -5.67192   0.054
 3.32 5.40 -5.940 -5.939 -5.938 -5.934 -5.928  8.16970 18.20264 -5.47163   0.063
 3.32 5.60 -5.891 -5.891 -5.889 -5.886 -5.879  8.29845 18.40289 -5.27138   0.073
 3.32 5.80 -5.835 -5.835 -5.833 -5.830 -5.823  8.42511 18.60312 -5.07115   0.085
 3.32 6.00 -5.770 -5.770 -5.768 -5.765 -5.758  8.55084 18.80332 -4.87096   0.098
 3.32 6.25 -5.673 -5.672 -5.671 -5.667 -5.661  8.70717 19.05350 -4.62087   0.118
 3.32 6.50 -5.553 -5.552 -5.551 -5.548 -5.542  8.86350 19.30363 -4.37080   0.141
 3.32 6.75 -5.403 -5.402 -5.401 -5.399 -5.394  9.02300 19.55368 -4.12071   0.169
 3.32 7.00 -5.277 -5.277 -5.276 -5.274 -5.270  9.18441 19.80373 -3.87063   0.204
 3.32 7.25 -5.177 -5.176 -5.176 -5.174 -5.171  9.34841 20.05379 -3.62060   0.246
 3.32 7.50 -5.076 -5.076 -5.075 -5.074 -5.071  9.51242 20.30384 -3.37059   0.297
 3.32 7.75 -4.975 -4.975 -4.975 -4.973 -4.972  9.67391 20.55387 -3.12060   0.358
 3.32 8.00 -4.875 -4.875 -4.874 -4.873 -4.872  9.83372 20.80387 -2.87063   0.430
 3.34-2.00 -6.522 -6.519 -6.512 -6.500 -6.483  2.39076 10.51996-13.15441   0.001
 3.34-1.50 -6.543 -6.540 -6.533 -6.521 -6.505  2.78490 11.02036-12.65404   0.001
 3.34-1.00 -6.556 -6.553 -6.547 -6.535 -6.518  3.15014 11.52114-12.15323   0.001
 3.34-0.50 -6.553 -6.550 -6.544 -6.532 -6.515  3.49290 12.02366-11.65053   0.001
 3.34 0.00 -6.535 -6.531 -6.525 -6.512 -6.494  3.82847 12.53199-11.14237   0.001
 3.34 0.50 -6.505 -6.502 -6.494 -6.481 -6.461  4.18013 13.05269-10.62160   0.001
 3.34 1.00 -6.466 -6.462 -6.455 -6.440 -6.419  4.57795 13.59329-10.08103   0.001
 3.34 1.25 -6.442 -6.438 -6.430 -6.415 -6.394  4.80134 13.87002 -9.80435   0.001
 3.34 1.50 -6.414 -6.410 -6.402 -6.388 -6.365  5.03423 14.14675 -9.52768   0.002
 3.34 1.75 -6.382 -6.378 -6.371 -6.356 -6.334  5.27644 14.42190 -9.25256   0.002
 3.34 2.00 -6.347 -6.343 -6.337 -6.323 -6.302  5.51865 14.69522 -8.97922   0.003
 3.34 2.25 -6.310 -6.307 -6.301 -6.289 -6.270  5.75498 14.96434 -8.71007   0.004
 3.34 2.50 -6.274 -6.271 -6.266 -6.256 -6.238  5.98570 15.23019 -8.44418   0.005
 3.34 2.75 -6.238 -6.236 -6.232 -6.223 -6.208  6.20657 15.49267 -8.18173   0.006
 3.34 3.00 -6.204 -6.202 -6.199 -6.191 -6.179  6.42078 15.75251 -7.92191   0.008
 3.34 3.20 -6.177 -6.176 -6.173 -6.166 -6.155  6.58725 15.95863 -7.71578   0.010
 3.34 3.40 -6.151 -6.150 -6.147 -6.142 -6.132  6.75162 16.16366 -7.51073   0.012
 3.34 3.60 -6.126 -6.125 -6.123 -6.118 -6.110  6.91362 16.36765 -7.30666   0.014
 3.34 3.80 -6.103 -6.102 -6.100 -6.096 -6.088  7.07483 16.57094 -7.10331   0.017
 3.34 4.00 -6.078 -6.077 -6.076 -6.072 -6.065  7.23603 16.77357 -6.90066   0.021
 3.34 4.20 -6.055 -6.054 -6.053 -6.049 -6.042  7.39805 16.97567 -6.69870   0.025
 3.34 4.40 -6.030 -6.029 -6.028 -6.024 -6.018  7.56007 17.17737 -6.49709   0.031
 3.34 4.60 -6.003 -6.002 -6.001 -5.997 -5.991  7.72178 17.37867 -6.29579   0.037
 3.34 4.80 -5.974 -5.974 -5.972 -5.969 -5.962  7.88223 17.57972 -6.09469   0.044
 3.34 5.00 -5.943 -5.942 -5.941 -5.937 -5.931  8.04139 17.78053 -5.89381   0.053
 3.34 5.20 -5.910 -5.909 -5.908 -5.904 -5.898  8.19458 17.98119 -5.69319   0.063
 3.34 5.40 -5.875 -5.875 -5.873 -5.870 -5.863  8.34303 18.18172 -5.49267   0.075
 3.34 5.60 -5.839 -5.838 -5.837 -5.833 -5.827  8.48567 18.38215 -5.29220   0.089
 3.34 5.80 -5.801 -5.801 -5.799 -5.795 -5.789  8.62280 18.58250 -5.09178   0.104
 3.34 6.00 -5.762 -5.762 -5.760 -5.756 -5.750  8.75557 18.78276 -4.89144   0.121
 3.34 6.25 -5.712 -5.711 -5.709 -5.706 -5.699  8.91558 19.03292 -4.64129   0.146
 3.34 6.50 -5.658 -5.658 -5.656 -5.653 -5.646  9.07298 19.28308 -4.39115   0.175
 3.34 6.75 -5.603 -5.602 -5.600 -5.597 -5.591  9.22831 19.53328 -4.14096   0.209
 3.34 7.00 -5.543 -5.543 -5.541 -5.538 -5.532  9.38364 19.78348 -3.89076   0.250
 3.34 7.25 -5.480 -5.479 -5.478 -5.475 -5.470  9.54064 20.03350 -3.64073   0.300
 3.34 7.50 -5.412 -5.412 -5.410 -5.408 -5.403  9.69888 20.28353 -3.39073   0.360
 3.34 7.75 -5.340 -5.339 -5.338 -5.336 -5.332  9.85853 20.53359 -3.14073   0.432
 3.34 8.00 -5.263 -5.262 -5.262 -5.260 -5.256 10.01953 20.78369 -2.89076   0.520
 3.36-2.00 -6.429 -6.425 -6.417 -6.403 -6.384  2.49485 10.49996-13.17444   0.001
 3.36-1.50 -6.438 -6.434 -6.427 -6.413 -6.394  2.93207 10.99996-12.67448   0.001
 3.36-1.00 -6.442 -6.438 -6.431 -6.417 -6.398  3.34577 11.50024-12.17406   0.001
 3.36-0.50 -6.435 -6.431 -6.423 -6.409 -6.389  3.73054 12.00130-11.67325   0.001
 3.36 0.00 -6.411 -6.407 -6.399 -6.384 -6.363  4.08814 12.50406-11.17031   0.001
 3.36 0.50 -6.370 -6.366 -6.357 -6.341 -6.318  4.42862 13.01242-10.66214   0.001
 3.36 1.00 -6.319 -6.314 -6.305 -6.288 -6.263  4.77210 13.53339-10.14092   0.001
 3.36 1.25 -6.291 -6.287 -6.278 -6.261 -6.236  4.95399 13.80201 -9.87237   0.001
 3.36 1.50 -6.265 -6.260 -6.252 -6.235 -6.210  5.14520 14.07445 -9.59998   0.002
 3.36 1.75 -6.237 -6.232 -6.224 -6.208 -6.184  5.35131 14.35116 -9.32323   0.002
 3.36 2.00 -6.207 -6.203 -6.196 -6.181 -6.158  5.56844 14.62788 -9.04648   0.003
 3.36 2.25 -6.174 -6.171 -6.165 -6.152 -6.131  5.79935 14.90292 -8.77142   0.004
 3.36 2.50 -6.141 -6.138 -6.133 -6.122 -6.104  6.03100 15.17609 -8.49826   0.005
 3.36 2.75 -6.108 -6.106 -6.101 -6.092 -6.077  6.26307 15.44513 -8.22917   0.007
 3.36 3.00 -6.077 -6.075 -6.071 -6.064 -6.051  6.49513 15.71088 -7.96337   0.009
 3.36 3.20 -6.053 -6.051 -6.048 -6.042 -6.031  6.67359 15.92086 -7.75338   0.011
 3.36 3.40 -6.030 -6.029 -6.026 -6.021 -6.011  6.84814 16.12919 -7.54506   0.014
 3.36 3.60 -6.009 -6.008 -6.006 -6.001 -5.993  7.01834 16.33597 -7.33840   0.016
 3.36 3.80 -5.989 -5.988 -5.986 -5.981 -5.974  7.18507 16.54158 -7.13292   0.019
 3.36 4.00 -5.967 -5.966 -5.965 -5.961 -5.954  7.34908 16.74609 -6.92849   0.023
 3.36 4.20 -5.947 -5.946 -5.945 -5.941 -5.934  7.51022 16.94956 -6.72488   0.028
 3.36 4.40 -5.925 -5.924 -5.923 -5.919 -5.913  7.67080 17.15240 -6.52191   0.034
 3.36 4.60 -5.901 -5.900 -5.899 -5.895 -5.888  7.83106 17.35467 -6.31956   0.041
 3.36 4.80 -5.874 -5.873 -5.872 -5.868 -5.861  7.99110 17.55657 -6.11764   0.049
 3.36 5.00 -5.843 -5.843 -5.841 -5.837 -5.831  8.15076 17.75808 -5.91614   0.059
 3.36 5.20 -5.809 -5.809 -5.807 -5.803 -5.797  8.31009 17.95923 -5.71504   0.071
 3.36 5.40 -5.772 -5.772 -5.770 -5.766 -5.759  8.46852 18.16016 -5.51413   0.085
 3.36 5.60 -5.732 -5.731 -5.730 -5.726 -5.719  8.62456 18.36091 -5.31337   0.102
 3.36 5.80 -5.690 -5.689 -5.688 -5.684 -5.677  8.77579 18.56153 -5.11272   0.121
 3.36 6.00 -5.646 -5.645 -5.644 -5.640 -5.633  8.92293 18.76200 -4.91222   0.144
 3.36 6.25 -5.589 -5.589 -5.587 -5.583 -5.577  9.09795 19.01237 -4.66189   0.176
 3.36 6.50 -5.531 -5.531 -5.529 -5.525 -5.519  9.26600 19.26269 -4.41162   0.213
 3.36 6.75 -5.471 -5.471 -5.469 -5.466 -5.460  9.42708 19.51300 -4.16136   0.257
 3.36 7.00 -5.409 -5.408 -5.407 -5.404 -5.399  9.58467 19.76328 -3.91116   0.308
 3.36 7.25 -5.344 -5.343 -5.342 -5.339 -5.334  9.73911 20.01334 -3.66104   0.368
 3.36 7.50 -5.274 -5.274 -5.273 -5.270 -5.266  9.89354 20.26340 -3.41094   0.440
 3.36 7.75 -5.201 -5.200 -5.199 -5.197 -5.194 10.04852 20.51351 -3.16086   0.526
 3.36 8.00 -5.122 -5.122 -5.121 -5.119 -5.117 10.20385 20.76365 -2.91080   0.629
 3.38-2.00 -6.357 -6.352 -6.345 -6.330 -6.309  2.53173 10.47986-13.19450   0.001
 3.38-1.50 -6.355 -6.351 -6.343 -6.328 -6.307  3.00561 10.97987-12.69443   0.001
 3.38-1.00 -6.350 -6.346 -6.337 -6.322 -6.301  3.45788 11.48001-12.19436   0.001
 3.38-0.50 -6.333 -6.329 -6.320 -6.304 -6.282  3.88705 11.98028-11.69400   0.001
 3.38 0.00 -6.299 -6.295 -6.285 -6.268 -6.244  4.29048 12.48130-11.19308   0.001
 3.38 0.50 -6.245 -6.240 -6.230 -6.211 -6.185  4.66474 12.98430-10.69016   0.001
 3.38 1.00 -6.177 -6.172 -6.162 -6.142 -6.114  5.01620 13.49318-10.18125   0.002
 3.38 1.25 -6.143 -6.137 -6.128 -6.108 -6.080  5.18849 13.75227 -9.92211   0.002
 3.38 1.50 -6.110 -6.105 -6.096 -6.077 -6.050  5.36078 14.01536 -9.65896   0.002
 3.38 1.75 -6.080 -6.075 -6.067 -6.049 -6.024  5.53827 14.28468 -9.38965   0.003
 3.38 2.00 -6.053 -6.049 -6.041 -6.026 -6.003  5.72123 14.55763 -9.11674   0.004
 3.38 2.25 -6.028 -6.024 -6.018 -6.005 -5.984  5.91457 14.83445 -8.83997   0.005
 3.38 2.50 -6.004 -6.001 -5.996 -5.985 -5.968  6.11727 15.11126 -8.56320   0.006
 3.38 2.75 -5.981 -5.978 -5.974 -5.965 -5.950  6.33216 15.38608 -8.28835   0.007
 3.38 3.00 -5.957 -5.955 -5.951 -5.944 -5.931  6.55291 15.65877 -8.01556   0.009
 3.38 3.20 -5.937 -5.935 -5.932 -5.925 -5.915  6.73382 15.87386 -7.80052   0.011
 3.38 3.40 -5.916 -5.915 -5.912 -5.907 -5.897  6.91473 16.08685 -7.58757   0.013
 3.38 3.60 -5.896 -5.895 -5.893 -5.888 -5.879  7.09414 16.29765 -7.37682   0.017
 3.38 3.80 -5.876 -5.875 -5.873 -5.868 -5.860  7.27000 16.50660 -7.16790   0.021
 3.38 4.00 -5.854 -5.853 -5.851 -5.847 -5.840  7.44311 16.71391 -6.96059   0.026
 3.38 4.20 -5.833 -5.832 -5.831 -5.827 -5.820  7.61182 16.91977 -6.75462   0.031
 3.38 4.40 -5.810 -5.810 -5.808 -5.804 -5.797  7.77772 17.12458 -6.54974   0.037
 3.38 4.60 -5.786 -5.785 -5.784 -5.780 -5.773  7.94061 17.32842 -6.34594   0.045
 3.38 4.80 -5.759 -5.759 -5.757 -5.753 -5.746  8.10160 17.53157 -6.14289   0.055
 3.38 5.00 -5.730 -5.729 -5.728 -5.723 -5.716  8.26126 17.73408 -5.94044   0.066
 3.38 5.20 -5.698 -5.697 -5.695 -5.691 -5.684  8.42013 17.93605 -5.73840   0.079
 3.38 5.40 -5.662 -5.661 -5.659 -5.655 -5.648  8.57832 18.13764 -5.53673   0.095
 3.38 5.60 -5.622 -5.621 -5.620 -5.615 -5.608  8.73610 18.33888 -5.33546   0.114
 3.38 5.80 -5.579 -5.578 -5.576 -5.572 -5.565  8.89332 18.53988 -5.13445   0.136
 3.38 6.00 -5.532 -5.531 -5.530 -5.526 -5.519  9.04961 18.74068 -4.93367   0.163
 3.38 6.25 -5.470 -5.469 -5.468 -5.464 -5.457  9.23966 18.99146 -4.68297   0.203
 3.38 6.50 -5.404 -5.404 -5.402 -5.399 -5.393  9.42406 19.24205 -4.43239   0.250
 3.38 6.75 -5.336 -5.335 -5.334 -5.331 -5.326  9.59962 19.49247 -4.18186   0.306
 3.38 7.00 -5.266 -5.265 -5.264 -5.261 -5.257  9.76827 19.74280 -3.93144   0.372
 3.38 7.25 -5.193 -5.193 -5.192 -5.189 -5.185  9.92968 19.99308 -3.68127   0.448
 3.38 7.50 -5.118 -5.117 -5.117 -5.115 -5.111 10.08707 20.24329 -3.43109   0.537
 3.38 7.75 -5.040 -5.039 -5.039 -5.037 -5.034 10.24206 20.49343 -3.18090   0.642
 3.38 8.00 -4.958 -4.958 -4.957 -4.956 -4.954 10.39410 20.74351 -2.93070   0.765
 3.40-2.00 -6.296 -6.292 -6.284 -6.269 -6.248  2.53970 10.45984-13.21446   0.001
 3.40-1.50 -6.290 -6.286 -6.278 -6.262 -6.240  3.02366 10.95985-12.71444   0.001
 3.40-1.00 -6.276 -6.272 -6.263 -6.246 -6.224  3.50542 11.46000-12.21446   0.001
 3.40-0.50 -6.251 -6.246 -6.237 -6.219 -6.195  3.97090 11.96000-11.71444   0.001
 3.40 0.00 -6.207 -6.202 -6.192 -6.172 -6.146  4.41364 12.46045-11.21396   0.001
 3.40 0.50 -6.140 -6.134 -6.124 -6.103 -6.074  4.83219 12.96147-10.71287   0.001
 3.40 1.00 -6.059 -6.053 -6.042 -6.021 -5.990  5.22324 13.46494-10.20950   0.002
 3.40 1.25 -6.017 -6.011 -6.001 -5.980 -5.951  5.40809 13.71868 -9.95577   0.003
 3.40 1.50 -5.977 -5.972 -5.962 -5.943 -5.915  5.58850 13.97460 -9.69984   0.003
 3.40 1.75 -5.939 -5.935 -5.926 -5.909 -5.884  5.76433 14.23463 -9.43976   0.003
 3.40 2.00 -5.907 -5.903 -5.896 -5.881 -5.859  5.94017 14.49886 -9.17548   0.004
 3.40 2.25 -5.880 -5.876 -5.870 -5.858 -5.839  6.11751 14.76929 -8.90515   0.005
 3.40 2.50 -5.858 -5.855 -5.850 -5.840 -5.824  6.29688 15.04297 -8.63153   0.007
 3.40 2.75 -5.840 -5.838 -5.834 -5.825 -5.811  6.48270 15.31984 -8.35461   0.008
 3.40 3.00 -5.824 -5.822 -5.818 -5.811 -5.799  6.67486 15.59671 -8.07769   0.010
 3.40 3.20 -5.810 -5.808 -5.805 -5.798 -5.788  6.83532 15.81640 -7.85803   0.012
 3.40 3.40 -5.794 -5.793 -5.790 -5.784 -5.775  7.00016 16.03453 -7.63995   0.015
 3.40 3.60 -5.777 -5.776 -5.774 -5.768 -5.760  7.17095 16.25051 -7.42400   0.019
 3.40 3.80 -5.758 -5.757 -5.755 -5.750 -5.742  7.34440 16.46395 -7.21053   0.022
 3.40 4.00 -5.735 -5.734 -5.733 -5.728 -5.721  7.51786 16.67532 -6.99913   0.027
 3.40 4.20 -5.713 -5.712 -5.710 -5.706 -5.699  7.69102 16.88462 -6.78987   0.033
 3.40 4.40 -5.689 -5.688 -5.686 -5.682 -5.675  7.86371 17.09235 -6.58215   0.041
 3.40 4.60 -5.662 -5.662 -5.660 -5.656 -5.648  8.03423 17.29854 -6.37588   0.049
 3.40 4.80 -5.634 -5.634 -5.632 -5.628 -5.620  8.20109 17.50360 -6.17071   0.060
 3.40 5.00 -5.604 -5.603 -5.602 -5.597 -5.590  8.36549 17.70766 -5.96658   0.072
 3.40 5.20 -5.572 -5.571 -5.569 -5.565 -5.557  8.52716 17.91086 -5.76342   0.087
 3.40 5.40 -5.536 -5.535 -5.534 -5.529 -5.522  8.68718 18.11349 -5.56085   0.105
 3.40 5.60 -5.498 -5.497 -5.495 -5.491 -5.484  8.84567 18.31558 -5.35885   0.126
 3.40 5.80 -5.456 -5.455 -5.453 -5.449 -5.442  9.00312 18.51730 -5.15719   0.150
 3.40 6.00 -5.410 -5.409 -5.407 -5.404 -5.397  9.15957 18.71867 -4.95585   0.180
 3.40 6.25 -5.346 -5.346 -5.344 -5.341 -5.335  9.35447 18.96994 -4.70448   0.225
 3.40 6.50 -5.276 -5.275 -5.274 -5.271 -5.266  9.54741 19.22089 -4.45346   0.282
 3.40 6.75 -5.200 -5.199 -5.198 -5.195 -5.191  9.73582 19.47159 -4.20284   0.350
 3.40 7.00 -5.119 -5.118 -5.117 -5.115 -5.111  9.91908 19.72214 -3.95234   0.432
 3.40 7.25 -5.034 -5.034 -5.033 -5.031 -5.028 10.09401 19.97262 -3.70187   0.529
 3.40 7.50 -4.948 -4.948 -4.947 -4.945 -4.943 10.26221 20.22298 -3.45149   0.642
 3.40 7.75 -4.861 -4.860 -4.860 -4.858 -4.856 10.42424 20.47320 -3.20126   0.774
 3.40 8.00 -4.772 -4.772 -4.772 -4.770 -4.769 10.57990 20.72329 -2.95117   0.925
 3.42-2.00 -6.200 -6.196 -6.189 -6.175 -6.156  2.67587 10.43996-13.23441   0.001
 3.42-1.50 -6.218 -6.214 -6.206 -6.191 -6.170  3.08027 10.93992-12.73448   0.001
 3.42-1.00 -6.212 -6.208 -6.199 -6.182 -6.159  3.53046 11.43996-12.23441   0.001
 3.42-0.50 -6.184 -6.179 -6.169 -6.151 -6.126  4.00346 11.93997-11.73448   0.001
 3.42 0.00 -6.132 -6.126 -6.116 -6.096 -6.068  4.47509 12.44012-11.23426   0.001
 3.42 0.50 -6.056 -6.050 -6.039 -6.016 -5.986  4.92891 12.94052-10.73377   0.001
 3.42 1.00 -5.965 -5.959 -5.948 -5.926 -5.894  5.35984 13.44185-10.23255   0.002
 3.42 1.25 -5.917 -5.912 -5.902 -5.881 -5.851  5.56605 13.69333 -9.98108   0.003
 3.42 1.50 -5.871 -5.866 -5.857 -5.838 -5.811  5.76589 13.94576 -9.72862   0.004
 3.42 1.75 -5.827 -5.823 -5.815 -5.798 -5.775  5.95851 14.20019 -9.47419   0.004
 3.42 2.00 -5.787 -5.783 -5.777 -5.763 -5.742  6.14582 14.45713 -9.21724   0.005
 3.42 2.25 -5.751 -5.748 -5.742 -5.731 -5.714  6.32757 14.71841 -8.95598   0.006
 3.42 2.50 -5.721 -5.718 -5.714 -5.704 -5.689  6.50786 14.98403 -8.69037   0.008
 3.42 2.75 -5.696 -5.694 -5.690 -5.681 -5.669  6.68713 15.25601 -8.41834   0.010
 3.42 3.00 -5.676 -5.674 -5.670 -5.663 -5.652  6.86641 15.53058 -8.14375   0.013
 3.42 3.20 -5.661 -5.660 -5.657 -5.650 -5.640  7.01179 15.75204 -7.92235   0.015
 3.42 3.40 -5.648 -5.646 -5.643 -5.637 -5.628  7.15911 15.97349 -7.70094   0.018
 3.42 3.60 -5.633 -5.632 -5.630 -5.624 -5.615  7.30930 16.19399 -7.48047   0.021
 3.42 3.80 -5.617 -5.616 -5.614 -5.609 -5.600  7.46362 16.41218 -7.26225   0.025
 3.42 4.00 -5.598 -5.597 -5.595 -5.591 -5.583  7.62159 16.62859 -7.04581   0.030
 3.42 4.20 -5.579 -5.578 -5.576 -5.571 -5.564  7.78536 16.84226 -6.83213   0.036
 3.42 4.40 -5.555 -5.555 -5.553 -5.548 -5.541  7.95106 17.05390 -6.62048   0.044
 3.42 4.60 -5.529 -5.529 -5.527 -5.522 -5.515  8.11882 17.26347 -6.41090   0.053
 3.42 4.80 -5.501 -5.500 -5.498 -5.494 -5.486  8.28722 17.47137 -6.20297   0.064
 3.42 5.00 -5.469 -5.468 -5.467 -5.463 -5.455  8.45561 17.67779 -5.99654   0.078
 3.42 5.20 -5.435 -5.435 -5.433 -5.429 -5.422  8.62145 17.88294 -5.79143   0.095
 3.42 5.40 -5.399 -5.398 -5.397 -5.393 -5.386  8.78558 18.08717 -5.58722   0.115
 3.42 5.60 -5.360 -5.359 -5.357 -5.354 -5.347  8.94766 18.29051 -5.38383   0.138
 3.42 5.80 -5.317 -5.317 -5.315 -5.311 -5.305  9.10776 18.49324 -5.18102   0.166
 3.42 6.00 -5.271 -5.270 -5.269 -5.265 -5.259  9.26623 18.69539 -4.97881   0.199
 3.42 6.25 -5.207 -5.206 -5.205 -5.202 -5.197  9.46245 18.94738 -4.72686   0.249
 3.42 6.50 -5.136 -5.135 -5.134 -5.131 -5.126  9.65667 19.19893 -4.47534   0.312
 3.42 6.75 -5.056 -5.056 -5.054 -5.052 -5.048  9.84949 19.45024 -4.22405   0.390
 3.42 7.00 -4.968 -4.968 -4.967 -4.965 -4.962 10.03981 19.70122 -3.97306   0.486
 3.42 7.25 -4.874 -4.874 -4.873 -4.871 -4.869 10.22594 19.95176 -3.72243   0.602
 3.42 7.50 -4.776 -4.775 -4.775 -4.773 -4.771 10.40705 20.20222 -3.47198   0.741
 3.42 7.75 -4.676 -4.676 -4.675 -4.674 -4.673 10.58042 20.45265 -3.22164   0.905
 3.42 8.00 -4.577 -4.577 -4.577 -4.576 -4.575 10.74695 20.70303 -2.97143   1.096
 3.44-2.00 -6.013 -6.010 -6.005 -5.995 -5.980  3.08493 10.41996-13.25446   0.001
 3.44-1.50 -6.071 -6.067 -6.060 -6.048 -6.029  3.38310 10.91991-12.75449   0.001
 3.44-1.00 -6.105 -6.101 -6.093 -6.077 -6.056  3.71517 11.41996-12.25446   0.001
 3.44-0.50 -6.105 -6.100 -6.091 -6.073 -6.049  4.09482 11.91991-11.75449   0.001
 3.44 0.00 -6.065 -6.059 -6.048 -6.028 -6.000  4.52375 12.41996-11.25438   0.001
 3.44 0.50 -5.988 -5.981 -5.970 -5.947 -5.915  4.98109 12.92012-10.75424   0.001
 3.44 1.00 -5.890 -5.884 -5.873 -5.850 -5.819  5.43854 13.42062-10.25368   0.002
 3.44 1.25 -5.839 -5.834 -5.824 -5.802 -5.773  5.66091 13.67120-10.00305   0.003
 3.44 1.50 -5.789 -5.784 -5.775 -5.757 -5.730  5.87841 13.92221 -9.75203   0.004
 3.44 1.75 -5.740 -5.736 -5.728 -5.712 -5.690  6.09028 14.17408 -9.50021   0.005
 3.44 2.00 -5.693 -5.689 -5.683 -5.670 -5.651  6.29645 14.42716 -9.24726   0.006
 3.44 2.25 -5.647 -5.645 -5.639 -5.628 -5.612  6.49623 14.68240 -8.99206   0.008
 3.44 2.50 -5.605 -5.602 -5.598 -5.589 -5.575  6.69064 14.94047 -8.73400   0.010
 3.44 2.75 -5.566 -5.564 -5.560 -5.551 -5.539  6.87970 15.20356 -8.47088   0.012
 3.44 3.00 -5.531 -5.529 -5.526 -5.518 -5.507  7.06521 15.47114 -8.20329   0.015
 3.44 3.20 -5.507 -5.505 -5.502 -5.495 -5.485  7.21100 15.69014 -7.98443   0.018
 3.44 3.40 -5.486 -5.484 -5.481 -5.475 -5.465  7.35622 15.91006 -7.76455   0.021
