 ROSSELAND MASS ABSORPTION COEFFICIENTS [-3.5]
 logT logP  0km/s  1km/s  2km/s  4km/s  8km/s  log Ne   log Na  log rho IPloCM-1
 3.32-2.00 -6.527 -6.523 -6.516 -6.502 -6.483  2.54481 10.54033-13.13395   0.001
 3.32-1.50 -6.569 -6.565 -6.558 -6.546 -6.528  2.87754 11.04139-12.63302   0.001
 3.32-1.00 -6.593 -6.590 -6.583 -6.571 -6.554  3.21378 11.54419-12.13024   0.001
 3.32-0.50 -6.591 -6.588 -6.581 -6.568 -6.551  3.57738 12.05231-11.62197   0.001
 3.32 0.00 -6.567 -6.563 -6.555 -6.542 -6.523  3.99352 12.57380-11.10062   0.001
 3.32 0.50 -6.525 -6.521 -6.513 -6.497 -6.476  4.46894 13.11494-10.55956   0.001
 3.32 1.00 -6.471 -6.467 -6.458 -6.442 -6.419  4.96820 13.66829-10.00603   0.002
 3.32 1.25 -6.442 -6.437 -6.429 -6.413 -6.389  5.20953 13.94330 -9.73096   0.002
 3.32 1.50 -6.412 -6.408 -6.400 -6.384 -6.361  5.44373 14.21643 -9.45780   0.003
 3.32 1.75 -6.381 -6.377 -6.370 -6.355 -6.333  5.66719 14.48542 -9.18895   0.004
 3.32 2.00 -6.349 -6.346 -6.339 -6.326 -6.306  5.88361 14.75113 -8.92336   0.005
 3.32 2.25 -6.316 -6.314 -6.308 -6.296 -6.278  6.09302 15.01336 -8.66105   0.006
 3.32 2.50 -6.283 -6.281 -6.276 -6.265 -6.249  6.30016 15.27300 -8.40132   0.007
 3.32 2.75 -6.249 -6.247 -6.243 -6.234 -6.220  6.50560 15.53044 -8.14382   0.009
 3.32 3.00 -6.214 -6.212 -6.209 -6.201 -6.189  6.71105 15.78618 -7.88807   0.012
 3.32 3.20 -6.185 -6.184 -6.180 -6.174 -6.163  6.87682 15.98972 -7.68460   0.014
 3.32 3.40 -6.156 -6.154 -6.152 -6.146 -6.137  7.04259 16.19260 -7.48177   0.017
 3.32 3.60 -6.127 -6.126 -6.124 -6.119 -6.111  7.20748 16.39489 -7.27951   0.021
 3.32 3.80 -6.099 -6.098 -6.096 -6.092 -6.084  7.36947 16.59677 -7.07764   0.025
 3.32 4.00 -6.069 -6.069 -6.067 -6.063 -6.057  7.52879 16.79824 -6.87615   0.030
 3.32 4.20 -6.042 -6.041 -6.040 -6.036 -6.029  7.68084 16.99933 -6.67499   0.036
 3.32 4.40 -6.013 -6.012 -6.010 -6.007 -6.000  7.82748 17.20022 -6.47405   0.042
 3.32 4.60 -5.981 -5.981 -5.979 -5.975 -5.969  7.96793 17.40096 -6.27331   0.050
 3.32 4.80 -5.947 -5.946 -5.945 -5.941 -5.934  8.10322 17.60159 -6.07271   0.058
 3.32 5.00 -5.909 -5.909 -5.907 -5.903 -5.896  8.23452 17.80209 -5.87225   0.068
 3.32 5.20 -5.867 -5.866 -5.865 -5.861 -5.854  8.36158 18.00238 -5.67192   0.079
 3.32 5.40 -5.819 -5.818 -5.816 -5.812 -5.805  8.48780 18.20264 -5.47163   0.091
 3.32 5.60 -5.764 -5.763 -5.762 -5.758 -5.750  8.61320 18.40289 -5.27138   0.105
 3.32 5.80 -5.701 -5.700 -5.699 -5.695 -5.687  8.73841 18.60312 -5.07115   0.122
 3.32 6.00 -5.628 -5.627 -5.625 -5.621 -5.614  8.86362 18.80332 -4.87096   0.141
 3.32 6.25 -5.517 -5.517 -5.515 -5.511 -5.505  9.02304 19.05350 -4.62087   0.169
 3.32 6.50 -5.377 -5.376 -5.375 -5.371 -5.366  9.18441 19.30363 -4.37080   0.204
 3.32 6.75 -5.191 -5.190 -5.189 -5.187 -5.182  9.34868 19.55368 -4.12071   0.246
 3.32 7.00 -5.044 -5.043 -5.043 -5.041 -5.037  9.51295 19.80373 -3.87063   0.297
 3.32 7.25 -4.941 -4.941 -4.940 -4.938 -4.935  9.67499 20.05379 -3.62060   0.358
 3.32 7.50 -4.838 -4.838 -4.837 -4.836 -4.833  9.83449 20.30384 -3.37059   0.430
 3.32 7.75 -4.735 -4.735 -4.735 -4.733 -4.731  9.98825 20.55387 -3.12060   0.513
 3.32 8.00 -4.632 -4.632 -4.631 -4.630 -4.629 10.13735 20.80387 -2.87063   0.610
 3.34-2.00 -6.386 -6.381 -6.372 -6.356 -6.333  2.78469 10.51996-13.15441   0.001
 3.34-1.50 -6.423 -6.418 -6.410 -6.394 -6.372  3.14922 11.02036-12.65404   0.001
 3.34-1.00 -6.452 -6.448 -6.440 -6.425 -6.404  3.49108 11.52114-12.15323   0.001
 3.34-0.50 -6.463 -6.458 -6.450 -6.435 -6.414  3.82308 12.02366-11.65053   0.001
 3.34 0.00 -6.447 -6.443 -6.434 -6.418 -6.396  4.16554 12.53199-11.14237   0.001
 3.34 0.50 -6.405 -6.401 -6.392 -6.375 -6.351  4.54617 13.05269-10.62160   0.001
 3.34 1.00 -6.344 -6.339 -6.330 -6.312 -6.285  4.98829 13.59329-10.08103   0.002
 3.34 1.25 -6.309 -6.304 -6.295 -6.277 -6.251  5.23184 13.87002 -9.80435   0.002
 3.34 1.50 -6.273 -6.269 -6.260 -6.243 -6.217  5.47538 14.14675 -9.52768   0.003
 3.34 1.75 -6.237 -6.233 -6.225 -6.209 -6.186  5.71701 14.42190 -9.25256   0.004
 3.34 2.00 -6.204 -6.200 -6.193 -6.179 -6.157  5.95588 14.69522 -8.97922   0.005
 3.34 2.25 -6.172 -6.169 -6.163 -6.150 -6.131  6.18307 14.96434 -8.71007   0.006
 3.34 2.50 -6.142 -6.140 -6.135 -6.124 -6.107  6.40278 15.23019 -8.44418   0.008
 3.34 2.75 -6.114 -6.112 -6.107 -6.098 -6.084  6.61486 15.49267 -8.18173   0.010
 3.34 3.00 -6.087 -6.085 -6.081 -6.074 -6.061  6.82269 15.75251 -7.92191   0.013
 3.34 3.20 -6.065 -6.063 -6.060 -6.053 -6.043  6.98569 15.95863 -7.71578   0.016
 3.34 3.40 -6.043 -6.041 -6.039 -6.033 -6.023  7.14869 16.16366 -7.51073   0.019
 3.34 3.60 -6.020 -6.019 -6.017 -6.011 -6.003  7.31171 16.36765 -7.30666   0.023
 3.34 3.80 -5.996 -5.995 -5.993 -5.989 -5.981  7.47475 16.57094 -7.10331   0.028
 3.34 4.00 -5.970 -5.969 -5.968 -5.964 -5.957  7.63779 16.77357 -6.90066   0.034
 3.34 4.20 -5.944 -5.944 -5.942 -5.938 -5.931  7.79971 16.97567 -6.69870   0.041
 3.34 4.40 -5.916 -5.916 -5.914 -5.910 -5.903  7.96015 17.17737 -6.49709   0.049
 3.34 4.60 -5.886 -5.886 -5.884 -5.880 -5.873  8.11720 17.37867 -6.29579   0.058
 3.34 4.80 -5.854 -5.854 -5.852 -5.848 -5.841  8.26834 17.57972 -6.09469   0.069
 3.34 5.00 -5.821 -5.820 -5.818 -5.814 -5.807  8.41464 17.78053 -5.89381   0.082
 3.34 5.20 -5.786 -5.785 -5.783 -5.779 -5.771  8.55418 17.98119 -5.69319   0.096
 3.34 5.40 -5.749 -5.748 -5.747 -5.742 -5.735  8.68934 18.18172 -5.49267   0.112
 3.34 5.60 -5.711 -5.710 -5.709 -5.704 -5.697  8.81964 18.38215 -5.29220   0.130
 3.34 5.80 -5.672 -5.671 -5.669 -5.665 -5.657  8.94714 18.58250 -5.09178   0.151
 3.34 6.00 -5.631 -5.630 -5.628 -5.624 -5.616  9.07298 18.78276 -4.89144   0.175
 3.34 6.25 -5.576 -5.575 -5.574 -5.570 -5.562  9.22849 19.03292 -4.64129   0.209
 3.34 6.50 -5.518 -5.518 -5.516 -5.512 -5.505  9.38400 19.28308 -4.39115   0.250
 3.34 6.75 -5.456 -5.456 -5.454 -5.450 -5.444  9.54111 19.53328 -4.14096   0.300
 3.34 7.00 -5.389 -5.389 -5.387 -5.384 -5.378  9.69949 19.78348 -3.89076   0.360
 3.34 7.25 -5.317 -5.317 -5.316 -5.312 -5.307  9.86013 20.03350 -3.64073   0.433
 3.34 7.50 -5.241 -5.240 -5.239 -5.236 -5.231 10.02078 20.28353 -3.39073   0.521
 3.34 7.75 -5.160 -5.159 -5.158 -5.156 -5.152 10.17939 20.53359 -3.14073   0.625
 3.34 8.00 -5.077 -5.076 -5.075 -5.073 -5.070 10.33666 20.78369 -2.89076   0.749
 3.36-2.00 -6.273 -6.268 -6.258 -6.239 -6.214  2.93202 10.49996-13.17444   0.001
 3.36-1.50 -6.296 -6.290 -6.281 -6.263 -6.238  3.34557 10.99996-12.67448   0.001
 3.36-1.00 -6.317 -6.312 -6.302 -6.284 -6.260  3.72989 11.50024-12.17406   0.001
 3.36-0.50 -6.326 -6.321 -6.312 -6.293 -6.269  4.08600 12.00130-11.67325   0.001
 3.36 0.00 -6.312 -6.307 -6.297 -6.278 -6.252  4.42308 12.50406-11.17031   0.001
 3.36 0.50 -6.270 -6.265 -6.255 -6.235 -6.207  4.75785 13.01242-10.66214   0.001
 3.36 1.00 -6.209 -6.204 -6.194 -6.173 -6.145  5.11561 13.53339-10.14092   0.002
 3.36 1.25 -6.175 -6.170 -6.160 -6.141 -6.112  5.31369 13.80201 -9.87237   0.002
 3.36 1.50 -6.141 -6.136 -6.127 -6.109 -6.082  5.52504 14.07445 -9.59998   0.003
 3.36 1.75 -6.107 -6.102 -6.094 -6.078 -6.053  5.75457 14.35116 -9.32323   0.004
 3.36 2.00 -6.074 -6.070 -6.063 -6.049 -6.027  5.98909 14.62788 -9.04648   0.005
 3.36 2.25 -6.043 -6.040 -6.034 -6.021 -6.003  6.22724 14.90292 -8.77142   0.006
 3.36 2.50 -6.015 -6.012 -6.007 -5.997 -5.981  6.46538 15.17609 -8.49826   0.008
 3.36 2.75 -5.989 -5.987 -5.982 -5.973 -5.959  6.69407 15.44513 -8.22917   0.011
 3.36 3.00 -5.964 -5.962 -5.958 -5.950 -5.938  6.91609 15.71088 -7.96337   0.014
 3.36 3.20 -5.944 -5.942 -5.939 -5.932 -5.921  7.08766 15.92086 -7.75338   0.017
 3.36 3.40 -5.924 -5.922 -5.919 -5.913 -5.903  7.25594 16.12919 -7.54506   0.021
 3.36 3.60 -5.903 -5.901 -5.899 -5.893 -5.884  7.42070 16.33597 -7.33840   0.025
 3.36 3.80 -5.880 -5.879 -5.877 -5.872 -5.863  7.58358 16.54158 -7.13292   0.031
 3.36 4.00 -5.855 -5.854 -5.852 -5.848 -5.840  7.74539 16.74609 -6.92849   0.037
 3.36 4.20 -5.831 -5.830 -5.828 -5.824 -5.816  7.90679 16.94956 -6.72488   0.045
 3.36 4.40 -5.803 -5.802 -5.801 -5.796 -5.789  8.06754 17.15240 -6.52191   0.054
 3.36 4.60 -5.773 -5.772 -5.770 -5.766 -5.758  8.22788 17.35467 -6.31956   0.065
 3.36 4.80 -5.739 -5.738 -5.737 -5.732 -5.724  8.38750 17.55657 -6.11764   0.078
 3.36 5.00 -5.703 -5.702 -5.700 -5.695 -5.687  8.54605 17.75808 -5.91614   0.093
 3.36 5.20 -5.664 -5.663 -5.661 -5.656 -5.648  8.69973 17.95923 -5.71504   0.111
 3.36 5.40 -5.623 -5.622 -5.620 -5.616 -5.608  8.84921 18.16016 -5.51413   0.132
 3.36 5.60 -5.581 -5.580 -5.578 -5.574 -5.566  8.99334 18.36091 -5.31337   0.156
 3.36 5.80 -5.537 -5.537 -5.535 -5.530 -5.523  9.13191 18.56153 -5.11272   0.183
 3.36 6.00 -5.493 -5.492 -5.490 -5.486 -5.478  9.26600 18.76200 -4.91222   0.213
 3.36 6.25 -5.435 -5.434 -5.433 -5.429 -5.422  9.42724 19.01237 -4.66189   0.257
 3.36 6.50 -5.375 -5.374 -5.373 -5.369 -5.362  9.58501 19.26269 -4.41162   0.308
 3.36 6.75 -5.311 -5.310 -5.309 -5.305 -5.299  9.73969 19.51300 -4.16136   0.368
 3.36 7.00 -5.242 -5.242 -5.240 -5.237 -5.232  9.89437 19.76328 -3.91116   0.440
 3.36 7.25 -5.168 -5.168 -5.167 -5.164 -5.159 10.04952 20.01334 -3.66104   0.526
 3.36 7.50 -5.089 -5.089 -5.088 -5.085 -5.081 10.20520 20.26340 -3.41094   0.630
 3.36 7.75 -5.004 -5.004 -5.003 -5.001 -4.998 10.36214 20.51351 -3.16086   0.755
 3.36 8.00 -4.915 -4.915 -4.914 -4.913 -4.910 10.52009 20.76365 -2.91080   0.905
 3.38-2.00 -6.186 -6.181 -6.170 -6.150 -6.123  3.00561 10.47986-13.19450   0.001
 3.38-1.50 -6.196 -6.190 -6.180 -6.160 -6.133  3.45773 10.97987-12.69443   0.001
 3.38-1.00 -6.204 -6.199 -6.188 -6.168 -6.141  3.88677 11.48001-12.19436   0.001
 3.38-0.50 -6.203 -6.197 -6.187 -6.166 -6.138  4.28959 11.98028-11.69400   0.001
 3.38 0.00 -6.182 -6.176 -6.164 -6.143 -6.113  4.66257 12.48130-11.19308   0.001
 3.38 0.50 -6.135 -6.129 -6.117 -6.095 -6.064  5.01030 12.98430-10.69016   0.002
 3.38 1.00 -6.071 -6.065 -6.054 -6.032 -6.001  5.34616 13.49318-10.18125   0.002
 3.38 1.25 -6.036 -6.030 -6.020 -5.999 -5.970  5.51721 13.75227 -9.92211   0.002
 3.38 1.50 -6.003 -5.998 -5.988 -5.970 -5.943  5.69232 14.01536 -9.65896   0.003
 3.38 1.75 -5.971 -5.967 -5.959 -5.942 -5.918  5.87897 14.28468 -9.38965   0.004
 3.38 2.00 -5.944 -5.940 -5.933 -5.919 -5.898  6.07664 14.55763 -9.11674   0.005
 3.38 2.25 -5.918 -5.915 -5.909 -5.897 -5.879  6.29054 14.83445 -8.83997   0.007
 3.38 2.50 -5.894 -5.892 -5.887 -5.876 -5.861  6.51322 15.11126 -8.56320   0.009
 3.38 2.75 -5.870 -5.868 -5.863 -5.854 -5.841  6.74474 15.38608 -8.28835   0.012
 3.38 3.00 -5.845 -5.843 -5.839 -5.831 -5.819  6.97626 15.65877 -8.01556   0.015
 3.38 3.20 -5.824 -5.822 -5.818 -5.811 -5.800  7.15821 15.87386 -7.80052   0.018
 3.38 3.40 -5.802 -5.800 -5.797 -5.790 -5.779  7.33735 16.08685 -7.58757   0.023
 3.38 3.60 -5.778 -5.777 -5.774 -5.768 -5.758  7.51238 16.29765 -7.37682   0.028
 3.38 3.80 -5.754 -5.752 -5.750 -5.744 -5.735  7.68292 16.50660 -7.16790   0.034
 3.38 4.00 -5.727 -5.726 -5.724 -5.719 -5.710  7.85009 16.71391 -6.96059   0.041
 3.38 4.20 -5.701 -5.700 -5.698 -5.694 -5.685  8.01397 16.91977 -6.75462   0.049
 3.38 4.40 -5.674 -5.673 -5.671 -5.666 -5.658  8.17609 17.12458 -6.54974   0.059
 3.38 4.60 -5.644 -5.643 -5.641 -5.636 -5.628  8.33663 17.32842 -6.34594   0.071
 3.38 4.80 -5.612 -5.611 -5.609 -5.604 -5.596  8.49622 17.53157 -6.14289   0.086
 3.38 5.00 -5.576 -5.575 -5.573 -5.568 -5.560  8.65485 17.73408 -5.94044   0.103
 3.38 5.20 -5.537 -5.536 -5.534 -5.530 -5.521  8.81319 17.93605 -5.73840   0.124
 3.38 5.40 -5.495 -5.494 -5.492 -5.487 -5.479  8.97033 18.13764 -5.53673   0.148
 3.38 5.60 -5.449 -5.449 -5.447 -5.442 -5.434  9.12539 18.33888 -5.33546   0.177
 3.38 5.80 -5.401 -5.401 -5.399 -5.394 -5.387  9.27655 18.53988 -5.13445   0.211
 3.38 6.00 -5.351 -5.350 -5.349 -5.345 -5.337  9.42407 18.74068 -4.93367   0.250
 3.38 6.25 -5.286 -5.285 -5.283 -5.280 -5.273  9.59986 18.99146 -4.68297   0.306
 3.38 6.50 -5.217 -5.217 -5.215 -5.212 -5.206  9.76871 19.24205 -4.43239   0.372
 3.38 6.75 -5.146 -5.145 -5.144 -5.141 -5.136  9.93042 19.49247 -4.18186   0.448
 3.38 7.00 -5.071 -5.071 -5.070 -5.067 -5.062 10.08814 19.74280 -3.93144   0.538
 3.38 7.25 -4.993 -4.992 -4.991 -4.989 -4.985 10.24222 19.99308 -3.68127   0.642
 3.38 7.50 -4.910 -4.909 -4.909 -4.906 -4.903 10.39585 20.24329 -3.43109   0.766
 3.38 7.75 -4.823 -4.823 -4.822 -4.820 -4.817 10.54935 20.49343 -3.18090   0.914
 3.38 8.00 -4.732 -4.732 -4.731 -4.730 -4.727 10.70260 20.74351 -2.93070   1.091
 3.40-2.00 -6.123 -6.117 -6.106 -6.086 -6.058  3.02036 10.45984-13.21446   0.001
 3.40-1.50 -6.120 -6.114 -6.103 -6.082 -6.054  3.50420 10.95985-12.71444   0.001
 3.40-1.00 -6.116 -6.110 -6.099 -6.078 -6.049  3.97039 11.46000-12.21446   0.001
 3.40-0.50 -6.104 -6.098 -6.086 -6.064 -6.034  4.41296 11.96000-11.71444   0.001
 3.40 0.00 -6.072 -6.066 -6.054 -6.030 -5.999  4.83123 12.46045-11.21396   0.001
 3.40 0.50 -6.017 -6.010 -5.998 -5.974 -5.942  5.22063 12.96147-10.71287   0.002
 3.40 1.00 -5.947 -5.941 -5.929 -5.907 -5.876  5.58172 13.46494-10.20950   0.003
 3.40 1.25 -5.909 -5.904 -5.894 -5.873 -5.845  5.75295 13.71868 -9.95577   0.003
 3.40 1.50 -5.874 -5.869 -5.860 -5.842 -5.816  5.92418 13.97460 -9.69984   0.004
 3.40 1.75 -5.840 -5.836 -5.828 -5.812 -5.790  6.09560 14.23463 -9.43976   0.005
 3.40 2.00 -5.811 -5.807 -5.800 -5.787 -5.767  6.26741 14.49886 -9.17548   0.006
 3.40 2.25 -5.785 -5.782 -5.776 -5.765 -5.748  6.44790 14.76929 -8.90515   0.008
 3.40 2.50 -5.763 -5.760 -5.755 -5.745 -5.730  6.63639 15.04297 -8.63153   0.010
 3.40 2.75 -5.742 -5.739 -5.735 -5.725 -5.712  6.83746 15.31984 -8.35461   0.013
 3.40 3.00 -5.719 -5.717 -5.713 -5.704 -5.692  7.04766 15.59671 -8.07769   0.016
 3.40 3.20 -5.698 -5.696 -5.693 -5.685 -5.673  7.22503 15.81640 -7.85803   0.019
 3.40 3.40 -5.675 -5.673 -5.670 -5.662 -5.651  7.40240 16.03453 -7.63995   0.024
 3.40 3.60 -5.649 -5.648 -5.645 -5.638 -5.627  7.57973 16.25051 -7.42400   0.029
 3.40 3.80 -5.622 -5.620 -5.618 -5.611 -5.601  7.75685 16.46395 -7.21053   0.036
 3.40 4.00 -5.591 -5.590 -5.588 -5.583 -5.574  7.93374 16.67532 -6.99913   0.044
 3.40 4.20 -5.563 -5.562 -5.560 -5.555 -5.546  8.10517 16.88462 -6.78987   0.054
 3.40 4.40 -5.533 -5.532 -5.530 -5.525 -5.516  8.27365 17.09235 -6.58215   0.065
 3.40 4.60 -5.502 -5.501 -5.499 -5.494 -5.485  8.43897 17.29854 -6.37588   0.079
 3.40 4.80 -5.469 -5.468 -5.466 -5.461 -5.453  8.60178 17.50360 -6.17071   0.095
 3.40 5.00 -5.433 -5.433 -5.431 -5.426 -5.417  8.76253 17.70766 -5.96658   0.114
 3.40 5.20 -5.395 -5.395 -5.393 -5.388 -5.380  8.92169 17.91086 -5.76342   0.137
 3.40 5.40 -5.354 -5.353 -5.351 -5.347 -5.339  9.07959 18.11349 -5.56085   0.164
 3.40 5.60 -5.309 -5.308 -5.306 -5.302 -5.294  9.23662 18.31558 -5.35885   0.197
 3.40 5.80 -5.259 -5.258 -5.256 -5.252 -5.245  9.39263 18.51730 -5.15719   0.236
 3.40 6.00 -5.205 -5.204 -5.202 -5.199 -5.192  9.54716 18.71867 -4.95585   0.282
 3.40 6.25 -5.131 -5.131 -5.129 -5.126 -5.120  9.73605 18.96994 -4.70448   0.351
 3.40 6.50 -5.053 -5.052 -5.051 -5.048 -5.042  9.91971 19.22089 -4.45346   0.433
 3.40 6.75 -4.970 -4.970 -4.968 -4.966 -4.961 10.09504 19.47159 -4.20284   0.530
 3.40 7.00 -4.885 -4.884 -4.883 -4.881 -4.877 10.26364 19.72214 -3.95234   0.643
 3.40 7.25 -4.797 -4.796 -4.796 -4.793 -4.790 10.42501 19.97262 -3.70187   0.774
 3.40 7.50 -4.707 -4.707 -4.706 -4.704 -4.701 10.58206 20.22298 -3.45149   0.928
 3.40 7.75 -4.616 -4.616 -4.615 -4.614 -4.611 10.73639 20.47320 -3.20126   1.108
 3.40 8.00 -4.524 -4.524 -4.523 -4.522 -4.520 10.88745 20.72329 -2.95117   1.319
 3.42-2.00 -6.067 -6.061 -6.051 -6.031 -6.004  3.03342 10.43996-13.23441   0.001
 3.42-1.50 -6.063 -6.057 -6.046 -6.025 -5.996  3.51188 10.93992-12.73448   0.001
 3.42-1.00 -6.050 -6.044 -6.033 -6.010 -5.981  3.99686 11.43996-12.23441   0.001
 3.42-0.50 -6.027 -6.020 -6.008 -5.985 -5.954  4.47261 11.93997-11.73448   0.001
 3.42 0.00 -5.985 -5.979 -5.966 -5.942 -5.909  4.92773 12.44012-11.23426   0.001
 3.42 0.50 -5.922 -5.915 -5.903 -5.878 -5.845  5.35851 12.94052-10.73377   0.002
 3.42 1.00 -5.845 -5.839 -5.828 -5.806 -5.776  5.76268 13.44185-10.23255   0.004
 3.42 1.25 -5.804 -5.798 -5.789 -5.769 -5.742  5.95338 13.69333 -9.98108   0.004
 3.42 1.50 -5.764 -5.760 -5.751 -5.734 -5.710  6.13767 13.94576 -9.72862   0.005
 3.42 1.75 -5.725 -5.721 -5.714 -5.699 -5.678  6.31495 14.20019 -9.47419   0.006
 3.42 2.00 -5.689 -5.685 -5.679 -5.666 -5.648  6.48982 14.45713 -9.21724   0.008
 3.42 2.25 -5.655 -5.652 -5.646 -5.635 -5.618  6.66285 14.71841 -8.95598   0.010
 3.42 2.50 -5.624 -5.622 -5.616 -5.606 -5.591  6.83588 14.98403 -8.69037   0.012
 3.42 2.75 -5.597 -5.594 -5.590 -5.580 -5.566  7.01393 15.25601 -8.41834   0.015
 3.42 3.00 -5.572 -5.569 -5.565 -5.556 -5.543  7.19701 15.53058 -8.14375   0.018
 3.42 3.20 -5.551 -5.549 -5.545 -5.537 -5.524  7.34991 15.75204 -7.92235   0.022
 3.42 3.40 -5.530 -5.528 -5.524 -5.516 -5.505  7.50768 15.97349 -7.70094   0.026
 3.42 3.60 -5.506 -5.504 -5.501 -5.494 -5.483  7.67167 16.19399 -7.48047   0.032
 3.42 3.80 -5.479 -5.478 -5.475 -5.469 -5.458  7.83989 16.41218 -7.26225   0.039
 3.42 4.00 -5.449 -5.448 -5.445 -5.440 -5.431  8.01030 16.62859 -7.04581   0.047
 3.42 4.20 -5.419 -5.418 -5.416 -5.410 -5.401  8.18261 16.84226 -6.83213   0.057
 3.42 4.40 -5.386 -5.385 -5.383 -5.378 -5.370  8.35491 17.05390 -6.62048   0.070
 3.42 4.60 -5.352 -5.351 -5.349 -5.345 -5.336  8.52587 17.26347 -6.41090   0.085
 3.42 4.80 -5.317 -5.316 -5.314 -5.309 -5.301  8.69388 17.47137 -6.20297   0.103
 3.42 5.00 -5.279 -5.278 -5.276 -5.271 -5.263  8.85974 17.67779 -5.99654   0.125
 3.42 5.20 -5.238 -5.238 -5.236 -5.231 -5.224  9.02271 17.88294 -5.79143   0.151
 3.42 5.40 -5.195 -5.194 -5.193 -5.189 -5.181  9.18367 18.08717 -5.58722   0.182
 3.42 5.60 -5.149 -5.148 -5.146 -5.142 -5.135  9.34274 18.29051 -5.38383   0.218
 3.42 5.80 -5.098 -5.097 -5.096 -5.092 -5.085  9.50028 18.49324 -5.18102   0.261
 3.42 6.00 -5.042 -5.042 -5.040 -5.037 -5.031  9.65629 18.69539 -4.97881   0.312
 3.42 6.25 -4.966 -4.965 -4.964 -4.961 -4.956  9.84984 18.94738 -4.72686   0.390
 3.42 6.50 -4.881 -4.881 -4.880 -4.877 -4.872 10.04060 19.19893 -4.47534   0.486
 3.42 6.75 -4.790 -4.789 -4.788 -4.786 -4.782 10.22736 19.45024 -4.22405   0.603
 3.42 7.00 -4.693 -4.693 -4.692 -4.690 -4.686 10.40909 19.70122 -3.97306   0.743
 3.42 7.25 -4.594 -4.594 -4.593 -4.591 -4.588 10.58284 19.95176 -3.72243   0.907
 3.42 7.50 -4.495 -4.495 -4.494 -4.493 -4.490 10.75004 20.20222 -3.47198   1.100
 3.42 7.75 -4.398 -4.397 -4.397 -4.395 -4.393 10.91113 20.45265 -3.22164   1.324
 3.42 8.00 -4.301 -4.301 -4.301 -4.299 -4.298 11.06595 20.70303 -2.97143   1.583
 3.44-2.00 -5.957 -5.952 -5.944 -5.927 -5.905  3.21617 10.41996-13.25446   0.001
 3.44-1.50 -5.986 -5.981 -5.971 -5.952 -5.926  3.59649 10.91991-12.75449   0.001
 3.44-1.00 -5.989 -5.983 -5.972 -5.951 -5.922  4.02857 11.41996-12.25446   0.001
 3.44-0.50 -5.967 -5.960 -5.948 -5.925 -5.894  4.49471 11.91991-11.75449   0.001
 3.44 0.00 -5.918 -5.911 -5.899 -5.874 -5.841  4.97011 12.41996-11.25438   0.001
 3.44 0.50 -5.847 -5.840 -5.828 -5.803 -5.770  5.43409 12.92012-10.75424   0.002
 3.44 1.00 -5.763 -5.757 -5.747 -5.725 -5.696  5.87552 13.42062-10.25368   0.004
 3.44 1.25 -5.719 -5.714 -5.704 -5.685 -5.660  6.08708 13.67120-10.00305   0.005
 3.44 1.50 -5.674 -5.670 -5.662 -5.645 -5.623  6.29204 13.92221 -9.75203   0.006
 3.44 1.75 -5.629 -5.625 -5.618 -5.604 -5.584  6.48952 14.17408 -9.50021   0.008
 3.44 2.00 -5.584 -5.581 -5.574 -5.562 -5.544  6.68043 14.42716 -9.24726   0.010
 3.44 2.25 -5.539 -5.536 -5.530 -5.519 -5.503  6.86423 14.68240 -8.99206   0.012
 3.44 2.50 -5.496 -5.493 -5.488 -5.477 -5.462  7.04415 14.94047 -8.73400   0.015
 3.44 2.75 -5.454 -5.451 -5.447 -5.437 -5.423  7.22035 15.20356 -8.47088   0.019
 3.44 3.00 -5.416 -5.414 -5.409 -5.400 -5.387  7.39655 15.47114 -8.20329   0.023
 3.44 3.20 -5.388 -5.386 -5.381 -5.373 -5.360  7.53878 15.69014 -7.98443   0.027
 3.44 3.40 -5.361 -5.359 -5.356 -5.348 -5.336  7.68244 15.91006 -7.76455   0.031
