
 ROSSELAND MASS ABSORPTION COEFFICENTS
 logT logP  0km/s  1km/s  2km/s  4km/s  8km/s  log Ne   log Na  log rho IPloCM-1
 3.32-2.00 -5.104 -5.090 -5.069 -5.038 -5.000  5.46330 10.53970-13.12119
 3.32-1.50 -5.141 -5.125 -5.104 -5.069 -5.032  5.87518 11.04060-12.62033
 3.32-1.00 -5.190 -5.173 -5.150 -5.115 -5.077  6.27692 11.54345-12.11748
 3.32-0.50 -5.235 -5.218 -5.194 -5.160 -5.122  6.68332 12.05192-11.60924
 3.32 0.00 -5.261 -5.244 -5.221 -5.187 -5.148  7.10857 12.57310-11.08788
 3.32 0.50 -5.267 -5.250 -5.227 -5.193 -5.154  7.54133 13.11428-10.54668
 3.32 1.00 -5.266 -5.249 -5.226 -5.191 -5.153  7.94562 13.66783 -9.99311
 3.32 1.25 -5.262 -5.246 -5.223 -5.188 -5.150  8.13076 13.94284 -9.71809
 3.32 1.50 -5.257 -5.240 -5.217 -5.184 -5.146  8.30771 14.21590 -9.44503
 3.32 1.75 -5.246 -5.229 -5.207 -5.175 -5.138  8.47670 14.48487 -9.17611
 3.32 2.00 -5.230 -5.214 -5.193 -5.161 -5.125  8.64296 14.75059 -8.91045
 3.32 2.25 -5.207 -5.192 -5.171 -5.141 -5.107  8.80716 15.01287 -8.64816
 3.32 2.50 -5.178 -5.163 -5.143 -5.115 -5.082  8.97137 15.27254 -8.38849
 3.32 2.75 -5.139 -5.124 -5.106 -5.078 -5.047  9.13793 15.52993 -8.13117
 3.32 3.00 -5.091 -5.078 -5.061 -5.034 -5.005  9.30449 15.78562 -7.87550
 3.32 3.20 -5.045 -5.033 -5.016 -4.991 -4.963  9.43770 15.98910 -7.67191
 3.32 3.40 -4.994 -4.983 -4.967 -4.943 -4.916  9.57085 16.19195 -7.46897
 3.32 3.60 -4.936 -4.925 -4.911 -4.890 -4.864  9.70244 16.39424 -7.26665
 3.32 3.80 -4.872 -4.863 -4.850 -4.830 -4.806  9.83045 16.59613 -7.06476
 3.32 4.00 -4.802 -4.795 -4.784 -4.766 -4.744  9.95569 16.79762 -6.86328
 3.32 4.20 -4.738 -4.731 -4.720 -4.702 -4.680 10.07680 16.99869 -6.66218
 3.32 4.40 -4.668 -4.661 -4.650 -4.633 -4.610 10.19479 17.19957 -6.46128
 3.32 4.60 -4.595 -4.588 -4.578 -4.562 -4.539 10.30957 17.40031 -6.26057
 3.32 4.80 -4.520 -4.513 -4.503 -4.486 -4.464 10.42174 17.60095 -6.05997
 3.32 5.00 -4.438 -4.431 -4.422 -4.405 -4.382 10.53161 17.80148 -5.85949
 3.32 5.20 -4.349 -4.342 -4.332 -4.317 -4.294 10.63947 18.00188 -5.65914
 3.32 5.40 -4.250 -4.243 -4.234 -4.219 -4.197 10.74586 18.20221 -5.45885
 3.32 5.60 -4.138 -4.132 -4.123 -4.109 -4.088 10.85084 18.40242 -5.25861
 3.32 5.80 -4.010 -4.005 -3.997 -3.984 -3.964 10.95487 18.60258 -5.05840
 3.32 6.00 -3.864 -3.859 -3.852 -3.839 -3.821 11.05805 18.80271 -4.85824
 3.32 6.25 -3.647 -3.643 -3.638 -3.627 -3.610 11.18616 19.05286 -4.60812
 3.32 6.50 -3.383 -3.380 -3.375 -3.367 -3.353 11.31345 19.30298 -4.35803
 3.32 6.75 -3.059 -3.057 -3.055 -3.048 -3.037 11.44007 19.55306 -4.10797
 3.32 7.00 -2.857 -2.854 -2.852 -2.846 -2.838 11.56608 19.80312 -3.85792
 3.32 7.25 -2.751 -2.748 -2.746 -2.741 -2.733 11.69164 20.05316 -3.60788
 3.32 7.50 -2.648 -2.647 -2.644 -2.640 -2.633 11.81657 20.30320 -3.35783
 3.32 7.75 -2.549 -2.547 -2.546 -2.542 -2.536 11.94070 20.55323 -3.10774
 3.32 8.00 -2.454 -2.452 -2.450 -2.446 -2.441 12.06408 20.80325 -2.85761
 3.34-2.00 -5.035 -5.023 -5.004 -4.975 -4.938  5.53995 10.51930-13.14164
 3.34-1.50 -5.047 -5.033 -5.012 -4.979 -4.939  5.97672 11.01953-12.64130
 3.34-1.00 -5.071 -5.054 -5.031 -4.995 -4.953  6.39498 11.52048-12.14044
 3.34-0.50 -5.102 -5.083 -5.059 -5.021 -4.979  6.79969 12.02325-11.63771
 3.34 0.00 -5.125 -5.106 -5.081 -5.043 -5.000  7.20303 12.53135-11.12965
 3.34 0.50 -5.117 -5.098 -5.073 -5.034 -4.992  7.62076 13.05192-10.60889
 3.34 1.00 -5.072 -5.053 -5.028 -4.989 -4.946  8.05154 13.59273-10.06824
 3.34 1.25 -5.042 -5.023 -4.997 -4.960 -4.918  8.25995 13.86943 -9.79154
 3.34 1.50 -5.012 -4.993 -4.967 -4.931 -4.889  8.46135 14.14613 -9.51485
 3.34 1.75 -4.982 -4.963 -4.938 -4.902 -4.862  8.64953 14.42130 -9.23963
 3.34 2.00 -4.953 -4.935 -4.911 -4.875 -4.837  8.82872 14.69469 -8.96618
 3.34 2.25 -4.923 -4.905 -4.882 -4.847 -4.809  8.99884 14.96383 -8.69711
 3.34 2.50 -4.891 -4.873 -4.851 -4.818 -4.781  9.16495 15.22968 -8.43133
 3.34 2.75 -4.854 -4.837 -4.815 -4.785 -4.749  9.32766 15.49211 -8.16887
 3.34 3.00 -4.811 -4.795 -4.774 -4.745 -4.712  9.49038 15.75189 -7.90904
 3.34 3.20 -4.771 -4.755 -4.736 -4.708 -4.675  9.62112 15.95796 -7.70291
 3.34 3.40 -4.724 -4.711 -4.693 -4.667 -4.636  9.75186 16.16296 -7.49788
 3.34 3.60 -4.673 -4.660 -4.643 -4.620 -4.590  9.88260 16.36696 -7.29390
 3.34 3.80 -4.614 -4.603 -4.589 -4.567 -4.540 10.01330 16.57026 -7.09066
 3.34 4.00 -4.550 -4.542 -4.530 -4.510 -4.485 10.14395 16.77291 -6.88807
 3.34 4.20 -4.493 -4.485 -4.474 -4.454 -4.429 10.27136 16.97500 -6.68601
 3.34 4.40 -4.433 -4.425 -4.413 -4.396 -4.371 10.39632 17.17669 -6.48433
 3.34 4.60 -4.374 -4.366 -4.356 -4.338 -4.313 10.51829 17.37799 -6.28301
 3.34 4.80 -4.315 -4.308 -4.298 -4.280 -4.255 10.63695 17.57905 -6.08193
 3.34 5.00 -4.256 -4.248 -4.239 -4.221 -4.196 10.75274 17.77988 -5.88107
 3.34 5.20 -4.196 -4.189 -4.180 -4.162 -4.138 10.86550 17.98052 -5.68042
 3.34 5.40 -4.135 -4.128 -4.118 -4.102 -4.077 10.97611 18.18104 -5.47988
 3.34 5.60 -4.071 -4.065 -4.056 -4.039 -4.016 11.08465 18.38147 -5.27944
 3.34 5.80 -4.006 -4.000 -3.991 -3.975 -3.953 11.19170 18.58183 -5.07906
 3.34 6.00 -3.940 -3.934 -3.925 -3.911 -3.888 11.29732 18.78212 -4.87877
 3.34 6.25 -3.855 -3.850 -3.842 -3.827 -3.806 11.42767 19.03241 -4.62857
 3.34 6.50 -3.770 -3.764 -3.756 -3.742 -3.721 11.55666 19.28262 -4.37841
 3.34 6.75 -3.681 -3.677 -3.669 -3.656 -3.637 11.68463 19.53275 -4.12825
 3.34 7.00 -3.594 -3.589 -3.582 -3.570 -3.551 11.81171 19.78283 -3.87811
 3.34 7.25 -3.506 -3.501 -3.495 -3.483 -3.465 11.93807 20.03284 -3.62805
 3.34 7.50 -3.417 -3.413 -3.406 -3.396 -3.379 12.06371 20.28285 -3.37799
 3.34 7.75 -3.329 -3.325 -3.318 -3.308 -3.293 12.18870 20.53292 -3.12790
 3.34 8.00 -3.240 -3.236 -3.230 -3.220 -3.207 12.31302 20.78305 -2.87778
 3.36-2.00 -4.959 -4.950 -4.933 -4.905 -4.870  5.62603 10.49927-13.16172
 3.36-1.50 -4.982 -4.971 -4.951 -4.920 -4.882  6.05077 10.99930-12.66154
 3.36-1.00 -4.988 -4.974 -4.953 -4.918 -4.876  6.48558 11.49969-12.16134
 3.36-0.50 -4.994 -4.977 -4.953 -4.915 -4.870  6.90779 12.00043-11.66035
 3.36 0.00 -4.997 -4.979 -4.951 -4.911 -4.866  7.31576 12.50338-11.15758
 3.36 0.50 -4.978 -4.958 -4.930 -4.889 -4.842  7.71875 13.01157-10.64937
 3.36 1.00 -4.914 -4.893 -4.865 -4.823 -4.777  8.13162 13.53275-10.12819
 3.36 1.25 -4.863 -4.842 -4.814 -4.773 -4.727  8.34522 13.80130 -9.85962
 3.36 1.50 -4.805 -4.784 -4.756 -4.716 -4.671  8.55883 14.07372 -9.58720
 3.36 1.75 -4.743 -4.723 -4.696 -4.656 -4.613  8.76754 14.35054 -9.31044
 3.36 2.00 -4.686 -4.665 -4.638 -4.600 -4.557  8.97063 14.62737 -9.03367
 3.36 2.25 -4.630 -4.610 -4.585 -4.549 -4.507  9.16035 14.90241 -8.75855
 3.36 2.50 -4.582 -4.562 -4.537 -4.502 -4.463  9.34084 15.17551 -8.48532
 3.36 2.75 -4.533 -4.515 -4.491 -4.458 -4.419  9.51182 15.44454 -8.21641
 3.36 3.00 -4.486 -4.470 -4.448 -4.416 -4.378  9.67779 15.71029 -7.95078
 3.36 3.20 -4.446 -4.431 -4.409 -4.379 -4.344  9.80700 15.92031 -7.74074
 3.36 3.40 -4.404 -4.389 -4.370 -4.341 -4.308  9.93601 16.12867 -7.53234
 3.36 3.60 -4.356 -4.344 -4.326 -4.299 -4.267 10.06491 16.33542 -7.32553
 3.36 3.80 -4.304 -4.293 -4.278 -4.253 -4.224 10.19374 16.54099 -7.11992
 3.36 4.00 -4.247 -4.238 -4.225 -4.204 -4.177 10.32243 16.74546 -6.91542
 3.36 4.20 -4.194 -4.186 -4.174 -4.153 -4.127 10.45091 16.94901 -6.71195
 3.36 4.40 -4.138 -4.130 -4.118 -4.099 -4.074 10.57893 17.15190 -6.50912
 3.36 4.60 -4.082 -4.075 -4.064 -4.045 -4.020 10.70569 17.35417 -6.30684
 3.36 4.80 -4.026 -4.020 -4.009 -3.991 -3.967 10.82990 17.55602 -6.10494
 3.36 5.00 -3.969 -3.963 -3.952 -3.935 -3.910 10.95192 17.75747 -5.90344
 3.36 5.20 -3.911 -3.905 -3.895 -3.878 -3.854 11.07053 17.95855 -5.70229
 3.36 5.40 -3.852 -3.845 -3.837 -3.820 -3.797 11.18652 18.15945 -5.50137
 3.36 5.60 -3.789 -3.784 -3.775 -3.760 -3.737 11.29980 18.36021 -5.30066
 3.36 5.80 -3.726 -3.721 -3.713 -3.697 -3.675 11.41083 18.56087 -5.10009
 3.36 6.00 -3.661 -3.656 -3.648 -3.634 -3.612 11.51983 18.76140 -4.89963
 3.36 6.25 -3.577 -3.572 -3.566 -3.552 -3.532 11.65366 19.01188 -4.64918
 3.36 6.50 -3.492 -3.488 -3.481 -3.469 -3.450 11.78540 19.26221 -4.39881
 3.36 6.75 -3.405 -3.402 -3.396 -3.384 -3.365 11.91545 19.51242 -4.14849
 3.36 7.00 -3.319 -3.315 -3.309 -3.298 -3.281 12.04415 19.76260 -3.89825
 3.36 7.25 -3.231 -3.227 -3.222 -3.212 -3.196 12.17177 20.01278 -3.64821
 3.36 7.50 -3.144 -3.140 -3.135 -3.125 -3.111 12.29842 20.26293 -3.39816
 3.36 7.75 -3.056 -3.053 -3.047 -3.038 -3.025 12.42426 20.51301 -3.14805
 3.36 8.00 -2.968 -2.965 -2.961 -2.953 -2.941 12.54925 20.76305 -2.89791
 3.38-2.00 -4.817 -4.809 -4.793 -4.767 -4.734  5.80455 10.47929-13.18177
 3.38-1.50 -4.887 -4.877 -4.859 -4.831 -4.793  6.16820 10.97923-12.68173
 3.38-1.00 -4.918 -4.907 -4.887 -4.855 -4.814  6.56949 11.47943-12.18158
 3.38-0.50 -4.918 -4.905 -4.882 -4.845 -4.800  6.99392 11.97964-11.68131
 3.38 0.00 -4.900 -4.884 -4.858 -4.818 -4.769  7.41631 12.48073-11.18032
 3.38 0.50 -4.859 -4.840 -4.811 -4.768 -4.718  7.82653 12.98363-10.67737
 3.38 1.00 -4.774 -4.752 -4.722 -4.678 -4.628  8.23045 13.49248-10.16851
 3.38 1.25 -4.711 -4.689 -4.660 -4.615 -4.566  8.43450 13.75150 -9.90940
 3.38 1.50 -4.635 -4.613 -4.583 -4.540 -4.490  8.64068 14.01452 -9.64628
 3.38 1.75 -4.549 -4.528 -4.498 -4.456 -4.409  8.85238 14.28398 -9.37693
 3.38 2.00 -4.460 -4.438 -4.410 -4.370 -4.324  9.06408 14.55703 -9.10397
 3.38 2.25 -4.372 -4.352 -4.324 -4.286 -4.241  9.27201 14.83381 -8.82717
 3.38 2.50 -4.291 -4.272 -4.246 -4.210 -4.167  9.47523 15.11059 -8.55037
 3.38 2.75 -4.218 -4.200 -4.177 -4.142 -4.102  9.66540 15.38544 -8.27551
 3.38 3.00 -4.155 -4.138 -4.115 -4.083 -4.045  9.84628 15.65820 -8.00274
 3.38 3.20 -4.106 -4.090 -4.070 -4.040 -4.003  9.98344 15.87330 -7.78769
 3.38 3.40 -4.060 -4.047 -4.027 -3.999 -3.964 10.11715 16.08630 -7.57473
 3.38 3.60 -4.013 -4.002 -3.984 -3.957 -3.925 10.24728 16.29709 -7.36395
 3.38 3.80 -3.964 -3.955 -3.940 -3.915 -3.885 10.37578 16.50602 -7.15501
 3.38 4.00 -3.914 -3.906 -3.894 -3.872 -3.844 10.50338 16.71332 -6.94769
 3.38 4.20 -3.868 -3.860 -3.849 -3.829 -3.801 10.63066 16.91922 -6.74184
 3.38 4.40 -3.819 -3.812 -3.801 -3.783 -3.757 10.75745 17.12406 -6.53701
 3.38 4.60 -3.770 -3.763 -3.753 -3.735 -3.711 10.88391 17.32788 -6.33313
 3.38 4.80 -3.720 -3.714 -3.705 -3.688 -3.662 11.00988 17.53098 -6.12992
 3.38 5.00 -3.668 -3.662 -3.653 -3.636 -3.612 11.13513 17.73344 -5.92738
 3.38 5.20 -3.615 -3.609 -3.601 -3.585 -3.561 11.25815 17.93534 -5.72549
 3.38 5.40 -3.559 -3.554 -3.545 -3.530 -3.507 11.37913 18.13689 -5.52395
 3.38 5.60 -3.500 -3.496 -3.488 -3.474 -3.451 11.49765 18.33816 -5.32271
 3.38 5.80 -3.439 -3.436 -3.428 -3.414 -3.393 11.61346 18.53922 -5.12165
 3.38 6.00 -3.377 -3.373 -3.366 -3.352 -3.332 11.72689 18.74005 -4.92082
 3.38 6.25 -3.296 -3.292 -3.286 -3.273 -3.255 11.86534 18.99075 -4.67010
 3.38 6.50 -3.214 -3.209 -3.204 -3.193 -3.175 12.00087 19.24130 -4.41953
 3.38 6.75 -3.129 -3.125 -3.120 -3.109 -3.094 12.13381 19.49179 -4.16903
 3.38 7.00 -3.043 -3.039 -3.035 -3.025 -3.010 12.26482 19.74218 -3.91865
 3.38 7.25 -2.957 -2.954 -2.949 -2.940 -2.926 12.39432 19.99236 -3.66852
 3.38 7.50 -2.870 -2.867 -2.863 -2.854 -2.842 12.52244 20.24254 -3.41839
 3.38 7.75 -2.783 -2.781 -2.777 -2.769 -2.759 12.64945 20.49272 -3.16819
 3.38 8.00 -2.697 -2.695 -2.691 -2.684 -2.674 12.77525 20.74288 -2.91793
 3.40-2.00 -4.624 -4.616 -4.603 -4.580 -4.548  6.04532 10.45924-13.20176
 3.40-1.50 -4.726 -4.717 -4.702 -4.674 -4.640  6.37365 10.95918-12.70180
 3.40-1.00 -4.800 -4.791 -4.773 -4.743 -4.703  6.71875 11.45924-12.20169
 3.40-0.50 -4.835 -4.823 -4.802 -4.768 -4.724  7.09621 11.95933-11.70158
 3.40 0.00 -4.823 -4.809 -4.785 -4.746 -4.697  7.50474 12.45969-11.20121
 3.40 0.50 -4.767 -4.750 -4.724 -4.681 -4.628  7.92210 12.96080-10.70006
 3.40 1.00 -4.660 -4.641 -4.611 -4.566 -4.513  8.33264 13.46419-10.19675
 3.40 1.25 -4.584 -4.564 -4.535 -4.489 -4.435  8.53520 13.71797 -9.94298
 3.40 1.50 -4.492 -4.470 -4.440 -4.394 -4.342  8.73775 13.97396 -9.68698
 3.40 1.75 -4.389 -4.367 -4.337 -4.293 -4.242  8.94164 14.23398 -9.42697
 3.40 2.00 -4.276 -4.255 -4.226 -4.183 -4.134  9.14706 14.49817 -9.16279
 3.40 2.25 -4.162 -4.142 -4.115 -4.075 -4.028  9.35722 14.76853 -8.89238
 3.40 2.50 -4.050 -4.032 -4.007 -3.969 -3.924  9.56738 15.04218 -8.61870
 3.40 2.75 -3.946 -3.930 -3.906 -3.872 -3.830  9.77384 15.31911 -8.34180
 3.40 3.00 -3.853 -3.839 -3.817 -3.786 -3.747  9.97571 15.59605 -8.06490
 3.40 3.20 -3.786 -3.773 -3.754 -3.724 -3.688 10.12779 15.81576 -7.84519
 3.40 3.40 -3.727 -3.715 -3.698 -3.670 -3.636 10.27404 16.03391 -7.62704
 3.40 3.60 -3.672 -3.661 -3.647 -3.621 -3.589 10.41384 16.24989 -7.41107
 3.40 3.80 -3.619 -3.611 -3.597 -3.576 -3.546 10.54882 16.46333 -7.19766
 3.40 4.00 -3.569 -3.562 -3.552 -3.532 -3.504 10.68015 16.67468 -6.98632
 3.40 4.20 -3.526 -3.520 -3.509 -3.491 -3.464 10.80830 16.88387 -6.77708
 3.40 4.40 -3.481 -3.476 -3.467 -3.449 -3.424 10.93522 17.09153 -6.56938
 3.40 4.60 -3.438 -3.434 -3.424 -3.408 -3.385 11.06121 17.29775 -6.36315
 3.40 4.80 -3.397 -3.391 -3.382 -3.367 -3.344 11.18664 17.50291 -6.15801
 3.40 5.00 -3.351 -3.346 -3.338 -3.323 -3.300 11.31133 17.70706 -5.95390
 3.40 5.20 -3.305 -3.300 -3.293 -3.278 -3.256 11.43559 17.91032 -5.75066
 3.40 5.40 -3.255 -3.250 -3.243 -3.230 -3.209 11.55886 18.11296 -5.54804
 3.40 5.60 -3.201 -3.198 -3.191 -3.178 -3.158 11.68076 18.31502 -5.34603
 3.40 5.80 -3.146 -3.142 -3.135 -3.123 -3.104 11.80056 18.51670 -5.14441
 3.40 6.00 -3.088 -3.084 -3.078 -3.066 -3.048 11.91840 18.71800 -4.94310
 3.40 6.25 -3.011 -3.008 -3.002 -2.991 -2.975 12.06200 18.96918 -4.69174
 3.40 6.50 -2.932 -2.929 -2.924 -2.914 -2.898 12.20222 19.22011 -4.44069
 3.40 6.75 -2.851 -2.847 -2.843 -2.834 -2.819 12.33910 19.47093 -4.18988
 3.40 7.00 -2.767 -2.765 -2.761 -2.752 -2.739 12.47334 19.72156 -3.93930
 3.40 7.25 -2.683 -2.681 -2.676 -2.669 -2.657 12.60530 19.97190 -3.68904
 3.40 7.50 -2.599 -2.596 -2.592 -2.586 -2.575 12.73536 20.22220 -3.43878
 3.40 7.75 -2.514 -2.512 -2.508 -2.502 -2.492 12.86393 20.47247 -3.18849
 3.40 8.00 -2.430 -2.428 -2.424 -2.419 -2.410 12.99087 20.72272 -2.93817
 3.42-2.00 -4.429 -4.422 -4.411 -4.389 -4.361  6.27370 10.43917-13.22170
 3.42-1.50 -4.534 -4.526 -4.512 -4.487 -4.455  6.61045 10.93922-12.72170
 3.42-1.00 -4.630 -4.621 -4.604 -4.576 -4.539  6.93707 11.43933-12.22170
 3.42-0.50 -4.698 -4.686 -4.668 -4.635 -4.594  7.27068 11.93932-11.72170
 3.42 0.00 -4.718 -4.705 -4.684 -4.646 -4.599  7.62870 12.43949-11.22149
 3.42 0.50 -4.678 -4.663 -4.639 -4.597 -4.543  8.01870 12.93987-10.72102
 3.42 1.00 -4.568 -4.551 -4.524 -4.479 -4.422  8.42700 13.44122-10.21976
 3.42 1.25 -4.484 -4.467 -4.439 -4.392 -4.335  8.63116 13.69270 -9.96827
 3.42 1.50 -4.380 -4.362 -4.333 -4.288 -4.231  8.83531 13.94512 -9.71580
 3.42 1.75 -4.261 -4.243 -4.214 -4.170 -4.115  9.03805 14.19949 -9.46141
 3.42 2.00 -4.129 -4.110 -4.082 -4.038 -3.987  9.24080 14.45637 -9.20454
 3.42 2.25 -3.993 -3.975 -3.948 -3.908 -3.859  9.44488 14.71770 -8.94324
 3.42 2.50 -3.857 -3.839 -3.815 -3.776 -3.730  9.65031 14.98340 -8.67757
 3.42 2.75 -3.726 -3.711 -3.689 -3.655 -3.612  9.85906 15.25538 -8.40554
 3.42 3.00 -3.604 -3.591 -3.571 -3.540 -3.501 10.06781 15.52994 -8.13094
 3.42 3.20 -3.515 -3.503 -3.485 -3.457 -3.421 10.23174 15.75137 -7.90953
 3.42 3.40 -3.434 -3.424 -3.408 -3.383 -3.350 10.39245 15.97279 -7.68812
 3.42 3.60 -3.360 -3.352 -3.338 -3.316 -3.286 10.54758 16.19328 -7.46764
 3.42 3.80 -3.295 -3.288 -3.276 -3.256 -3.228 10.69530 16.41151 -7.24942
 3.42 4.00 -3.237 -3.230 -3.221 -3.203 -3.178 10.83734 16.62798 -7.03297
 3.42 4.20 -3.187 -3.181 -3.173 -3.156 -3.133 10.97301 16.84166 -6.81932
 3.42 4.40 -3.141 -3.136 -3.128 -3.113 -3.090 11.10503 17.05330 -6.60771
 3.42 4.60 -3.099 -3.095 -3.086 -3.073 -3.051 11.23341 17.26285 -6.39815
 3.42 4.80 -3.059 -3.055 -3.049 -3.035 -3.014 11.35979 17.47074 -6.19024
 3.42 5.00 -3.019 -3.015 -3.009 -2.996 -2.976 11.48473 17.67715 -5.98380
 3.42 5.20 -2.979 -2.976 -2.969 -2.957 -2.938 11.60900 17.88234 -5.77863
 3.42 5.40 -2.937 -2.933 -2.927 -2.915 -2.897 11.73234 18.08659 -5.57440
 3.42 5.60 -2.891 -2.887 -2.882 -2.870 -2.853 11.85489 18.28993 -5.37105
 3.42 5.80 -2.841 -2.839 -2.833 -2.822 -2.806 11.97649 18.49264 -5.16833
 3.42 6.00 -2.789 -2.786 -2.781 -2.771 -2.755 12.09691 18.69478 -4.96617
 3.42 6.25 -2.720 -2.717 -2.713 -2.702 -2.688 12.24469 18.94682 -4.71411
 3.42 6.50 -2.647 -2.644 -2.639 -2.631 -2.617 12.38952 19.19839 -4.46256
 3.42 6.75 -2.570 -2.567 -2.563 -2.555 -2.543 12.53073 19.44961 -4.21145
 3.42 7.00 -2.490 -2.489 -2.484 -2.477 -2.466 12.66885 19.70053 -3.96059
 3.42 7.25 -2.410 -2.408 -2.405 -2.398 -2.387 12.80399 19.95117 -3.70986
 3.42 7.50 -2.328 -2.326 -2.324 -2.317 -2.308 12.93666 20.20167 -3.45930
 3.42 7.75 -2.246 -2.244 -2.241 -2.236 -2.227 13.06736 20.45210 -3.20888
 3.42 8.00 -2.164 -2.162 -2.160 -2.155 -2.148 13.19590 20.70243 -2.95861
 3.44-2.00 -4.269 -4.263 -4.251 -4.231 -4.204  6.44716 10.41913-13.24177
 3.44-1.50 -4.351 -4.344 -4.331 -4.307 -4.277  6.81981 10.91918-12.74184
 3.44-1.00 -4.441 -4.432 -4.418 -4.391 -4.356  7.16465 11.41930-12.24169
 3.44-0.50 -4.519 -4.510 -4.493 -4.462 -4.422  7.49290 11.91924-11.74184
 3.44 0.00 -4.562 -4.550 -4.530 -4.494 -4.448  7.82007 12.41930-11.24162
 3.44 0.50 -4.549 -4.535 -4.512 -4.470 -4.417  8.16376 12.91944-10.74160
 3.44 1.00 -4.461 -4.446 -4.419 -4.374 -4.314  8.53643 13.41996-10.24094
 3.44 1.25 -4.382 -4.366 -4.340 -4.293 -4.233  8.73306 13.67056 -9.99036
 3.44 1.50 -4.280 -4.264 -4.238 -4.191 -4.132  8.93247 13.92158 -9.73945
 3.44 1.75 -4.155 -4.139 -4.113 -4.068 -4.010  9.13385 14.17339 -9.48761
 3.44 2.00 -4.014 -3.998 -3.973 -3.930 -3.875  9.33586 14.42635 -9.23456
 3.44 2.25 -3.862 -3.846 -3.822 -3.782 -3.730  9.53802 14.68162 -8.97932
 3.44 2.50 -3.705 -3.691 -3.668 -3.630 -3.582  9.74076 14.93977 -8.72125
 3.44 2.75 -3.552 -3.538 -3.517 -3.484 -3.441  9.94514 15.20286 -8.45815
 3.44 3.00 -3.403 -3.391 -3.373 -3.343 -3.305 10.15076 15.47041 -8.19058
 3.44 3.20 -3.293 -3.283 -3.267 -3.240 -3.205 10.31670 15.68931 -7.97171
 3.44 3.40 -3.191 -3.182 -3.168 -3.144 -3.112 10.48264 15.90921 -7.75182
 3.44 3.60 -3.097 -3.089 -3.077 -3.056 -3.028 10.64706 16.13011 -7.53090
 3.44 3.80 -3.012 -3.006 -2.996 -2.977 -2.952 10.80715 16.35126 -7.30971
 3.44 4.00 -2.936 -2.931 -2.923 -2.908 -2.885 10.96350 16.57241 -7.08852
 3.44 4.20 -2.872 -2.868 -2.860 -2.846 -2.826 11.11179 16.79062 -6.87031
 3.44 4.40 -2.816 -2.812 -2.806 -2.793 -2.773 11.25456 17.00688 -6.65407
 3.44 4.60 -2.767 -2.764 -2.757 -2.746 -2.727 11.39132 17.22090 -6.44008
 3.44 4.80 -2.724 -2.721 -2.715 -2.704 -2.687 11.52358 17.43266 -6.22833
 3.44 5.00 -2.684 -2.681 -2.675 -2.664 -2.648 11.65234 17.64247 -6.01854
 3.44 5.20 -2.647 -2.643 -2.638 -2.628 -2.612 11.77825 17.85033 -5.81066
 3.44 5.40 -2.608 -2.605 -2.601 -2.590 -2.575 11.90256 18.05683 -5.60415
 3.44 5.60 -2.568 -2.565 -2.561 -2.551 -2.536 12.02563 18.26205 -5.39900
 3.44 5.80 -2.526 -2.523 -2.519 -2.510 -2.496 12.14779 18.46635 -5.19479
 3.44 6.00 -2.480 -2.478 -2.474 -2.465 -2.451 12.26881 18.66978 -4.99140
 3.44 6.25 -2.419 -2.418 -2.413 -2.405 -2.392 12.41864 18.92302 -4.73803
 3.44 6.50 -2.354 -2.352 -2.348 -2.340 -2.329 12.56632 19.17551 -4.48545
 3.44 6.75 -2.285 -2.283 -2.279 -2.272 -2.261 12.71119 19.42749 -4.23357
 3.44 7.00 -2.211 -2.209 -2.206 -2.200 -2.190 12.85321 19.67897 -3.98213
 3.44 7.25 -2.135 -2.134 -2.130 -2.125 -2.116 12.99194 19.92994 -3.73101
 3.44 7.50 -2.058 -2.056 -2.054 -2.048 -2.040 13.12775 20.18070 -3.48017
 3.44 7.75 -1.980 -1.979 -1.975 -1.970 -1.963 13.26090 20.43136 -3.22957
 3.44 8.00 -1.901 -1.900 -1.897 -1.892 -1.886 13.39129 20.68188 -2.97923
 3.46-2.00 -4.156 -4.149 -4.139 -4.119 -4.094  6.55485 10.39915-13.26185
 3.46-1.50 -4.207 -4.201 -4.188 -4.165 -4.136  6.96965 10.89911-12.76195
 3.46-1.00 -4.271 -4.264 -4.248 -4.223 -4.189  7.35372 11.39915-12.26178
 3.46-0.50 -4.335 -4.326 -4.309 -4.280 -4.240  7.70714 11.89916-11.76170
 3.46 0.00 -4.377 -4.366 -4.347 -4.313 -4.268  8.03902 12.39933-11.26169
 3.46 0.50 -4.374 -4.361 -4.339 -4.299 -4.247  8.36361 12.89927-10.76170
