
 ROSSELAND MASS ABSORPTION COEFFICENTS
 logT logP  0km/s  1km/s  2km/s  4km/s  8km/s  log Ne   log Na  log rho IPloCM-1
 3.32-2.00 -5.194 -5.182 -5.163 -5.133 -5.098  5.37894 10.53983-13.12378
 3.32-1.50 -5.228 -5.213 -5.193 -5.161 -5.124  5.79435 11.04060-12.62288
 3.32-1.00 -5.271 -5.257 -5.235 -5.202 -5.165  6.19756 11.54357-12.12004
 3.32-0.50 -5.314 -5.299 -5.278 -5.245 -5.208  6.60282 12.05192-11.61172
 3.32 0.00 -5.340 -5.325 -5.303 -5.270 -5.233  7.02694 12.57322-11.09044
 3.32 0.50 -5.342 -5.327 -5.305 -5.272 -5.235  7.46374 13.11428-10.54929
 3.32 1.00 -5.335 -5.319 -5.297 -5.264 -5.226  7.87593 13.66792 -9.99568
 3.32 1.25 -5.328 -5.313 -5.292 -5.258 -5.221  8.06441 13.94301 -9.72065
 3.32 1.50 -5.321 -5.305 -5.284 -5.252 -5.214  8.24378 14.21617 -9.44758
 3.32 1.75 -5.309 -5.294 -5.274 -5.242 -5.207  8.41410 14.48506 -9.17861
 3.32 2.00 -5.294 -5.279 -5.259 -5.229 -5.194  8.58070 14.75066 -8.91293
 3.32 2.25 -5.272 -5.259 -5.239 -5.210 -5.177  8.74427 15.01289 -8.65074
 3.32 2.50 -5.246 -5.231 -5.213 -5.186 -5.154  8.90784 15.27254 -8.39115
 3.32 2.75 -5.210 -5.198 -5.180 -5.155 -5.124  9.07294 15.52995 -8.13381
 3.32 3.00 -5.169 -5.156 -5.140 -5.115 -5.086  9.23880 15.78569 -7.87811
 3.32 3.20 -5.127 -5.116 -5.100 -5.078 -5.050  9.37220 15.98926 -7.67455
 3.32 3.40 -5.081 -5.071 -5.057 -5.036 -5.009  9.50559 16.19216 -7.47161
 3.32 3.60 -5.029 -5.019 -5.006 -4.987 -4.962  9.63787 16.39442 -7.26926
 3.32 3.80 -4.972 -4.963 -4.952 -4.934 -4.910  9.76723 16.59624 -7.06733
 3.32 4.00 -4.908 -4.901 -4.891 -4.874 -4.852  9.89421 16.79768 -6.86582
 3.32 4.20 -4.848 -4.842 -4.832 -4.816 -4.794 10.01693 16.99883 -6.66475
 3.32 4.40 -4.782 -4.776 -4.766 -4.750 -4.729 10.13649 17.19977 -6.46388
 3.32 4.60 -4.712 -4.706 -4.696 -4.681 -4.660 10.25272 17.40052 -6.26315
 3.32 4.80 -4.637 -4.631 -4.621 -4.606 -4.584 10.36617 17.60113 -6.06252
 3.32 5.00 -4.554 -4.548 -4.538 -4.523 -4.502 10.47712 17.80161 -5.86201
 3.32 5.20 -4.462 -4.456 -4.447 -4.432 -4.410 10.58583 18.00194 -5.66170
 3.32 5.40 -4.359 -4.353 -4.345 -4.331 -4.310 10.69296 18.20222 -5.46143
 3.32 5.60 -4.243 -4.238 -4.230 -4.216 -4.196 10.79862 18.40246 -5.26118
 3.32 5.80 -4.111 -4.107 -4.100 -4.087 -4.068 10.90326 18.60267 -5.06095
 3.32 6.00 -3.960 -3.956 -3.950 -3.938 -3.920 11.00690 18.80284 -4.86075
 3.32 6.25 -3.739 -3.736 -3.731 -3.720 -3.705 11.13523 19.05291 -4.61068
 3.32 6.50 -3.471 -3.468 -3.464 -3.456 -3.443 11.26269 19.30298 -4.36061
 3.32 6.75 -3.146 -3.144 -3.141 -3.134 -3.125 11.38959 19.55312 -4.11053
 3.32 7.00 -2.941 -2.939 -2.936 -2.931 -2.923 11.51587 19.80325 -3.86044
 3.32 7.25 -2.832 -2.831 -2.828 -2.823 -2.816 11.64160 20.05322 -3.61042
 3.32 7.50 -2.728 -2.726 -2.724 -2.719 -2.713 11.76671 20.30320 -3.36041
 3.32 7.75 -2.627 -2.626 -2.623 -2.619 -2.614 11.89115 20.55326 -3.11042
 3.32 8.00 -2.530 -2.528 -2.526 -2.522 -2.517 12.01494 20.80339 -2.86044
 3.34-2.00 -5.126 -5.116 -5.099 -5.071 -5.036  5.45117 10.51943-13.14424
 3.34-1.50 -5.139 -5.127 -5.108 -5.077 -5.039  5.89092 11.01953-12.64397
 3.34-1.00 -5.159 -5.145 -5.124 -5.090 -5.051  6.31302 11.52061-12.14303
 3.34-0.50 -5.187 -5.170 -5.147 -5.112 -5.071  6.72008 12.02325-11.64035
 3.34 0.00 -5.207 -5.190 -5.166 -5.129 -5.088  7.12353 12.53148-11.13224
 3.34 0.50 -5.199 -5.182 -5.157 -5.120 -5.079  7.54020 13.05231-10.61154
 3.34 1.00 -5.153 -5.136 -5.112 -5.074 -5.033  7.97350 13.59284-10.07084
 3.34 1.25 -5.121 -5.104 -5.080 -5.044 -5.002  8.18499 13.86949 -9.79420
 3.34 1.50 -5.089 -5.072 -5.048 -5.013 -4.973  8.39058 14.14613 -9.51756
 3.34 1.75 -5.058 -5.041 -5.018 -4.983 -4.944  8.58216 14.42132 -9.24240
 3.34 2.00 -5.028 -5.012 -4.989 -4.956 -4.918  8.76410 14.69478 -8.96900
 3.34 2.25 -4.998 -4.982 -4.960 -4.929 -4.892  8.93614 14.96388 -8.69980
 3.34 2.50 -4.968 -4.953 -4.932 -4.901 -4.865  9.10312 15.22968 -8.43392
 3.34 2.75 -4.935 -4.919 -4.899 -4.870 -4.836  9.26547 15.49214 -8.17160
 3.34 3.00 -4.896 -4.882 -4.863 -4.836 -4.804  9.42781 15.75197 -7.91186
 3.34 3.20 -4.861 -4.848 -4.829 -4.803 -4.773  9.55781 15.95812 -7.70563
 3.34 3.40 -4.820 -4.808 -4.792 -4.768 -4.738  9.68793 16.16318 -7.50052
 3.34 3.60 -4.775 -4.764 -4.749 -4.726 -4.698  9.81842 16.36718 -7.29653
 3.34 3.80 -4.723 -4.713 -4.700 -4.680 -4.654  9.94916 16.57046 -7.09332
 3.34 4.00 -4.666 -4.658 -4.646 -4.628 -4.604 10.07990 16.77306 -6.89076
 3.34 4.20 -4.613 -4.606 -4.595 -4.577 -4.553 10.20830 16.97506 -6.68867
 3.34 4.40 -4.557 -4.550 -4.540 -4.522 -4.498 10.33466 17.17669 -6.48697
 3.34 4.60 -4.499 -4.492 -4.482 -4.464 -4.442 10.45822 17.37802 -6.28565
 3.34 4.80 -4.440 -4.433 -4.424 -4.406 -4.383 10.57835 17.57914 -6.08457
 3.34 5.00 -4.378 -4.372 -4.362 -4.346 -4.323 10.69557 17.78003 -5.88373
 3.34 5.20 -4.315 -4.309 -4.299 -4.283 -4.261 10.80968 17.98072 -5.68305
 3.34 5.40 -4.249 -4.244 -4.234 -4.219 -4.197 10.92144 18.18127 -5.48250
 3.34 5.60 -4.183 -4.177 -4.169 -4.153 -4.131 11.03088 18.38168 -5.28205
 3.34 5.80 -4.114 -4.109 -4.101 -4.086 -4.064 11.13860 18.58201 -5.08169
 3.34 6.00 -4.044 -4.039 -4.031 -4.017 -3.996 11.24477 18.78226 -4.88141
 3.34 6.25 -3.956 -3.951 -3.944 -3.930 -3.910 11.37577 19.03244 -4.63118
 3.34 6.50 -3.866 -3.861 -3.854 -3.841 -3.822 11.50529 19.28262 -4.38101
 3.34 6.75 -3.775 -3.770 -3.764 -3.751 -3.733 11.63363 19.53280 -4.13086
 3.34 7.00 -3.684 -3.680 -3.674 -3.662 -3.645 11.76103 19.78298 -3.88074
 3.34 7.25 -3.593 -3.590 -3.583 -3.572 -3.556 11.88773 20.03303 -3.63067
 3.34 7.50 -3.502 -3.499 -3.493 -3.482 -3.467 12.01368 20.28308 -3.38059
 3.34 7.75 -3.412 -3.408 -3.403 -3.393 -3.379 12.13891 20.53313 -3.13051
 3.34 8.00 -3.323 -3.319 -3.313 -3.303 -3.291 12.26340 20.78319 -2.88041
 3.36-2.00 -5.039 -5.030 -5.014 -4.987 -4.953  5.54494 10.49941-13.16431
 3.36-1.50 -5.071 -5.061 -5.043 -5.014 -4.977  5.96431 10.99944-12.66414
 3.36-1.00 -5.082 -5.069 -5.050 -5.017 -4.977  6.39933 11.49982-12.16393
 3.36-0.50 -5.086 -5.072 -5.049 -5.014 -4.971  6.82497 12.00087-11.66294
 3.36 0.00 -5.086 -5.069 -5.044 -5.007 -4.962  7.23578 12.50352-11.16015
 3.36 0.50 -5.064 -5.046 -5.019 -4.980 -4.935  7.63988 13.01157-10.65189
 3.36 1.00 -5.000 -4.981 -4.955 -4.915 -4.870  8.05231 13.53288-10.13077
 3.36 1.25 -4.951 -4.932 -4.906 -4.867 -4.823  8.26666 13.80159 -9.86216
 3.36 1.50 -4.894 -4.876 -4.849 -4.811 -4.767  8.48101 14.07408 -9.58973
 3.36 1.75 -4.834 -4.815 -4.790 -4.752 -4.710  8.69221 14.35078 -9.31299
 3.36 2.00 -4.775 -4.756 -4.732 -4.696 -4.655  8.89922 14.62747 -9.03626
 3.36 2.25 -4.720 -4.702 -4.678 -4.643 -4.604  9.09237 14.90256 -8.76119
 3.36 2.50 -4.670 -4.653 -4.630 -4.597 -4.559  9.27577 15.17580 -8.48798
 3.36 2.75 -4.624 -4.607 -4.586 -4.554 -4.517  9.44866 15.44474 -8.21889
 3.36 3.00 -4.580 -4.564 -4.543 -4.513 -4.478  9.61574 15.71037 -7.95312
 3.36 3.20 -4.542 -4.528 -4.509 -4.481 -4.447  9.74539 15.92034 -7.74314
 3.36 3.40 -4.504 -4.491 -4.473 -4.447 -4.415  9.87440 16.12868 -7.53485
 3.36 3.60 -4.462 -4.450 -4.434 -4.409 -4.379 10.00281 16.33545 -7.32820
 3.36 3.80 -4.415 -4.405 -4.391 -4.369 -4.341 10.13108 16.54104 -7.12272
 3.36 4.00 -4.364 -4.356 -4.344 -4.324 -4.298 10.25935 16.74554 -6.91829
 3.36 4.20 -4.316 -4.309 -4.298 -4.279 -4.253 10.38766 16.94904 -6.71467
 3.36 4.40 -4.265 -4.258 -4.247 -4.228 -4.204 10.51597 17.15190 -6.51172
 3.36 4.60 -4.210 -4.203 -4.193 -4.176 -4.152 10.64342 17.35420 -6.30946
 3.36 4.80 -4.154 -4.148 -4.137 -4.120 -4.097 10.76861 17.55611 -6.10767
 3.36 5.00 -4.095 -4.089 -4.079 -4.062 -4.039 10.89193 17.75762 -5.90623
 3.36 5.20 -4.033 -4.027 -4.018 -4.002 -3.980 11.01191 17.95877 -5.70503
 3.36 5.40 -3.968 -3.963 -3.954 -3.939 -3.917 11.12927 18.15969 -5.50404
 3.36 5.60 -3.903 -3.898 -3.890 -3.875 -3.853 11.24381 18.36042 -5.30323
 3.36 5.80 -3.835 -3.830 -3.823 -3.809 -3.788 11.35591 18.56101 -5.10256
 3.36 6.00 -3.766 -3.761 -3.754 -3.740 -3.721 11.46583 18.76148 -4.90205
 3.36 6.25 -3.678 -3.674 -3.667 -3.655 -3.636 11.60057 19.01188 -4.65170
 3.36 6.50 -3.589 -3.585 -3.579 -3.567 -3.549 11.73304 19.26221 -4.40143
 3.36 6.75 -3.499 -3.496 -3.489 -3.478 -3.461 11.86366 19.51252 -4.15120
 3.36 7.00 -3.409 -3.405 -3.400 -3.389 -3.374 11.99282 19.76275 -3.90101
 3.36 7.25 -3.318 -3.315 -3.310 -3.300 -3.286 12.12078 20.01284 -3.65087
 3.36 7.50 -3.228 -3.225 -3.220 -3.211 -3.198 12.24773 20.26293 -3.40077
 3.36 7.75 -3.139 -3.136 -3.131 -3.123 -3.111 12.37387 20.51302 -3.15070
 3.36 8.00 -3.051 -3.048 -3.044 -3.035 -3.024 12.49914 20.76313 -2.90067
 3.38-2.00 -4.884 -4.876 -4.861 -4.836 -4.803  5.73576 10.47929-13.18436
 3.38-1.50 -4.961 -4.952 -4.935 -4.908 -4.872  6.09272 10.97937-12.68424
 3.38-1.00 -5.005 -4.994 -4.976 -4.944 -4.905  6.48671 11.47943-12.18422
 3.38-0.50 -5.012 -5.000 -4.979 -4.945 -4.902  6.90870 11.97978-11.68382
 3.38 0.00 -4.995 -4.980 -4.957 -4.919 -4.872  7.33304 12.48073-11.18290
 3.38 0.50 -4.952 -4.935 -4.909 -4.869 -4.820  7.74609 12.98376-10.67985
 3.38 1.00 -4.866 -4.847 -4.819 -4.778 -4.728  8.15168 13.49262-10.17108
 3.38 1.25 -4.804 -4.785 -4.757 -4.716 -4.667  8.35606 13.75177 -9.91195
 3.38 1.50 -4.731 -4.711 -4.683 -4.641 -4.594  8.56229 14.01494 -9.64878
 3.38 1.75 -4.648 -4.628 -4.601 -4.561 -4.515  8.77464 14.28425 -9.37949
 3.38 2.00 -4.560 -4.541 -4.515 -4.476 -4.432  8.98700 14.55715 -9.10657
 3.38 2.25 -4.473 -4.455 -4.430 -4.393 -4.351  9.19705 14.83387 -8.82978
 3.38 2.50 -4.392 -4.375 -4.351 -4.316 -4.276  9.40381 15.11059 -8.55300
 3.38 2.75 -4.319 -4.303 -4.281 -4.248 -4.209  9.59723 15.38546 -8.27813
 3.38 3.00 -4.255 -4.240 -4.219 -4.189 -4.152  9.78104 15.65830 -8.00533
 3.38 3.20 -4.207 -4.193 -4.175 -4.146 -4.111  9.91998 15.87335 -7.79026
 3.38 3.40 -4.163 -4.151 -4.133 -4.107 -4.073 10.05493 16.08632 -7.57729
 3.38 3.60 -4.120 -4.109 -4.092 -4.068 -4.037 10.18571 16.29711 -7.36655
 3.38 3.80 -4.074 -4.065 -4.051 -4.030 -4.000 10.31444 16.50607 -7.15767
 3.38 4.00 -4.029 -4.021 -4.010 -3.990 -3.963 10.44201 16.71341 -6.95039
 3.38 4.20 -3.986 -3.980 -3.969 -3.950 -3.924 10.56892 16.91925 -6.74450
 3.38 4.40 -3.942 -3.936 -3.926 -3.908 -3.883 10.69547 17.12407 -6.53964
 3.38 4.60 -3.895 -3.889 -3.880 -3.863 -3.840 10.82184 17.32791 -6.33572
 3.38 4.80 -3.846 -3.840 -3.831 -3.815 -3.792 10.94798 17.53108 -6.13250
 3.38 5.00 -3.793 -3.788 -3.779 -3.763 -3.741 11.07372 17.73360 -5.92996
 3.38 5.20 -3.736 -3.731 -3.723 -3.708 -3.686 11.19752 17.93556 -5.72812
 3.38 5.40 -3.676 -3.672 -3.664 -3.650 -3.629 11.31953 18.13714 -5.52661
 3.38 5.60 -3.614 -3.610 -3.603 -3.589 -3.569 11.43923 18.33838 -5.32534
 3.38 5.80 -3.549 -3.545 -3.539 -3.526 -3.506 11.55621 18.53940 -5.12424
 3.38 6.00 -3.483 -3.479 -3.472 -3.460 -3.441 11.67080 18.74021 -4.92336
 3.38 6.25 -3.398 -3.394 -3.388 -3.377 -3.359 11.81052 18.99097 -4.67272
 3.38 6.50 -3.310 -3.307 -3.301 -3.291 -3.274 11.94714 19.24155 -4.42216
 3.38 6.75 -3.222 -3.219 -3.214 -3.204 -3.188 12.08099 19.49199 -4.17163
 3.38 7.00 -3.133 -3.130 -3.126 -3.116 -3.103 12.21272 19.74233 -3.92118
 3.38 7.25 -3.044 -3.041 -3.037 -3.028 -3.016 12.34274 19.99259 -3.67100
 3.38 7.50 -2.954 -2.952 -2.948 -2.940 -2.929 12.47129 20.24279 -3.42090
 3.38 7.75 -2.866 -2.864 -2.860 -2.853 -2.843 12.59867 20.49294 -3.17084
 3.38 8.00 -2.780 -2.777 -2.774 -2.767 -2.758 12.72477 20.74304 -2.92082
 3.40-2.00 -4.690 -4.683 -4.669 -4.646 -4.616  5.97978 10.45939-13.20433
 3.40-1.50 -4.792 -4.784 -4.769 -4.743 -4.709  6.30728 10.95933-12.70443
 3.40-1.00 -4.873 -4.864 -4.846 -4.817 -4.780  6.64768 11.45939-12.20426
 3.40-0.50 -4.919 -4.908 -4.889 -4.856 -4.813  7.01787 11.95947-11.70421
 3.40 0.00 -4.916 -4.904 -4.882 -4.845 -4.799  7.42160 12.45984-11.20384
 3.40 0.50 -4.865 -4.850 -4.826 -4.785 -4.735  7.83935 12.96095-10.70268
 3.40 1.00 -4.760 -4.743 -4.715 -4.673 -4.622  8.25212 13.46434-10.19935
 3.40 1.25 -4.685 -4.666 -4.639 -4.596 -4.545  8.45559 13.71811 -9.94555
 3.40 1.50 -4.593 -4.574 -4.547 -4.504 -4.454  8.65906 13.97410 -9.68952
 3.40 1.75 -4.492 -4.473 -4.446 -4.404 -4.355  8.86354 14.23410 -9.42954
 3.40 2.00 -4.382 -4.363 -4.336 -4.296 -4.248  9.06930 14.49831 -9.16539
 3.40 2.25 -4.271 -4.253 -4.227 -4.189 -4.143  9.28012 14.76885 -8.89494
 3.40 2.50 -4.160 -4.143 -4.120 -4.083 -4.040  9.49094 15.04258 -8.62124
 3.40 2.75 -4.056 -4.041 -4.019 -3.986 -3.946  9.69937 15.31937 -8.34436
 3.40 3.00 -3.962 -3.949 -3.929 -3.898 -3.861  9.90445 15.59616 -8.06748
 3.40 3.20 -3.895 -3.883 -3.865 -3.836 -3.801 10.05912 15.81580 -7.84783
 3.40 3.40 -3.835 -3.824 -3.808 -3.781 -3.749 10.20780 16.03391 -7.62975
 3.40 3.60 -3.780 -3.771 -3.756 -3.732 -3.702 10.34967 16.24992 -7.41377
 3.40 3.80 -3.728 -3.720 -3.708 -3.687 -3.659 10.48613 16.46343 -7.20027
 3.40 4.00 -3.681 -3.674 -3.664 -3.646 -3.620 10.61847 16.67486 -6.98885
 3.40 4.20 -3.640 -3.634 -3.624 -3.607 -3.583 10.74708 16.88412 -6.77959
 3.40 4.40 -3.599 -3.593 -3.585 -3.568 -3.544 10.87423 17.09181 -6.57191
 3.40 4.60 -3.557 -3.552 -3.544 -3.529 -3.506 11.00020 17.29799 -6.36575
 3.40 4.80 -3.515 -3.510 -3.503 -3.488 -3.466 11.12553 17.50307 -6.16070
 3.40 5.00 -3.470 -3.466 -3.458 -3.444 -3.423 11.25018 17.70714 -5.95664
 3.40 5.20 -3.423 -3.418 -3.411 -3.397 -3.377 11.37457 17.91034 -5.75342
 3.40 5.40 -3.370 -3.366 -3.360 -3.347 -3.327 11.49816 18.11296 -5.55077
 3.40 5.60 -3.314 -3.311 -3.304 -3.292 -3.273 11.62066 18.31506 -5.34860
 3.40 5.80 -3.255 -3.251 -3.245 -3.234 -3.216 11.74134 18.51679 -5.14680
 3.40 6.00 -3.194 -3.190 -3.185 -3.173 -3.156 11.86028 18.71817 -4.94539
 3.40 6.25 -3.113 -3.110 -3.105 -3.094 -3.079 12.00523 18.96943 -4.69423
 3.40 6.50 -3.029 -3.026 -3.022 -3.012 -2.998 12.14675 19.22037 -4.44334
 3.40 6.75 -2.944 -2.942 -2.938 -2.929 -2.915 12.28476 19.47109 -4.19256
 3.40 7.00 -2.858 -2.855 -2.851 -2.843 -2.831 12.41996 19.72165 -3.94195
 3.40 7.25 -2.770 -2.768 -2.764 -2.757 -2.746 12.55270 19.97211 -3.69159
 3.40 7.50 -2.683 -2.681 -2.677 -2.671 -2.661 12.68341 20.22246 -3.44129
 3.40 7.75 -2.597 -2.595 -2.591 -2.585 -2.576 12.81251 20.47269 -3.19103
 3.40 8.00 -2.511 -2.510 -2.507 -2.501 -2.493 12.93987 20.72280 -2.94082
 3.42-2.00 -4.503 -4.496 -4.484 -4.463 -4.436  6.20385 10.43933-13.22432
 3.42-1.50 -4.601 -4.594 -4.580 -4.556 -4.524  6.54444 10.93937-12.72423
 3.42-1.00 -4.697 -4.688 -4.673 -4.646 -4.609  6.87186 11.43949-12.22424
 3.42-0.50 -4.770 -4.760 -4.742 -4.711 -4.671  7.20249 11.93942-11.72423
 3.42 0.00 -4.802 -4.791 -4.770 -4.735 -4.688  7.55461 12.43965-11.22410
 3.42 0.50 -4.773 -4.759 -4.736 -4.697 -4.646  7.93882 12.94002-10.72377
 3.42 1.00 -4.670 -4.654 -4.629 -4.587 -4.532  8.34537 13.44138-10.22236
 3.42 1.25 -4.587 -4.572 -4.546 -4.504 -4.449  8.55021 13.69286 -9.97089
 3.42 1.50 -4.487 -4.471 -4.445 -4.402 -4.348  8.75504 13.94527 -9.71851
 3.42 1.75 -4.370 -4.354 -4.328 -4.286 -4.233  8.95865 14.19964 -9.46408
 3.42 2.00 -4.241 -4.224 -4.198 -4.157 -4.107  9.16227 14.45652 -9.20712
 3.42 2.25 -4.106 -4.090 -4.065 -4.026 -3.979  9.36710 14.71784 -8.94587
 3.42 2.50 -3.970 -3.954 -3.931 -3.895 -3.851  9.57322 14.98354 -8.68027
 3.42 2.75 -3.840 -3.826 -3.805 -3.773 -3.732  9.78282 15.25553 -8.40816
 3.42 3.00 -3.718 -3.706 -3.687 -3.658 -3.621  9.99242 15.53007 -8.13354
 3.42 3.20 -3.628 -3.618 -3.601 -3.575 -3.540 10.15785 15.75144 -7.91214
 3.42 3.40 -3.547 -3.537 -3.523 -3.499 -3.467 10.32065 15.97282 -7.69074
 3.42 3.60 -3.473 -3.465 -3.452 -3.431 -3.402 10.47827 16.19329 -7.47027
 3.42 3.80 -3.406 -3.400 -3.389 -3.370 -3.344 10.62832 16.41156 -7.25205
 3.42 4.00 -3.347 -3.342 -3.333 -3.316 -3.293 10.77254 16.62808 -7.03560
 3.42 4.20 -3.298 -3.294 -3.285 -3.270 -3.248 10.90985 16.84171 -6.82197
 3.42 4.40 -3.253 -3.249 -3.242 -3.228 -3.207 11.04311 17.05332 -6.61034
 3.42 4.60 -3.212 -3.208 -3.201 -3.188 -3.168 11.17231 17.26290 -6.40075
 3.42 4.80 -3.173 -3.169 -3.162 -3.150 -3.131 11.29920 17.47087 -6.19279
 3.42 5.00 -3.133 -3.129 -3.123 -3.111 -3.093 11.42439 17.67733 -5.98632
 3.42 5.20 -3.091 -3.088 -3.082 -3.070 -3.053 11.54860 17.88243 -5.78119
 3.42 5.40 -3.047 -3.044 -3.038 -3.027 -3.010 11.67194 18.08661 -5.57698
 3.42 5.60 -2.999 -2.996 -2.991 -2.980 -2.964 11.79467 18.28996 -5.37360
 3.42 5.80 -2.949 -2.946 -2.941 -2.930 -2.914 11.91673 18.49274 -5.17080
 3.42 6.00 -2.894 -2.891 -2.886 -2.877 -2.862 12.03783 18.69496 -4.96859
 3.42 6.25 -2.821 -2.818 -2.814 -2.805 -2.791 12.18654 18.94707 -4.71660
 3.42 6.50 -2.743 -2.741 -2.737 -2.729 -2.716 12.33244 19.19866 -4.46509
 3.42 6.75 -2.664 -2.662 -2.658 -2.650 -2.638 12.47480 19.44982 -4.21389
 3.42 7.00 -2.581 -2.579 -2.576 -2.569 -2.558 12.61405 19.70070 -3.96297
 3.42 7.25 -2.497 -2.496 -2.492 -2.486 -2.476 12.75018 19.95141 -3.71232
 3.42 7.50 -2.413 -2.411 -2.408 -2.403 -2.394 12.88372 20.20194 -3.46180
 3.42 7.75 -2.329 -2.327 -2.325 -2.319 -2.311 13.01513 20.45231 -3.21135
 3.42 8.00 -2.246 -2.245 -2.242 -2.237 -2.230 13.14426 20.70252 -2.96098
 3.44-2.00 -4.355 -4.349 -4.337 -4.317 -4.291  6.36903 10.41929-13.24435
 3.44-1.50 -4.428 -4.421 -4.408 -4.386 -4.357  6.74788 10.91934-12.74425
 3.44-1.00 -4.512 -4.504 -4.489 -4.464 -4.430  7.09761 11.41946-12.24428
 3.44-0.50 -4.589 -4.581 -4.563 -4.534 -4.496  7.42797 11.91939-11.74425
 3.44 0.00 -4.639 -4.628 -4.608 -4.575 -4.530  7.75397 12.41946-11.24420
 3.44 0.50 -4.636 -4.623 -4.600 -4.561 -4.510  8.09307 12.91960-10.74401
 3.44 1.00 -4.557 -4.543 -4.519 -4.476 -4.419  8.45969 13.42012-10.24352
 3.44 1.25 -4.484 -4.469 -4.443 -4.400 -4.342  8.65429 13.67073 -9.99299
 3.44 1.50 -4.386 -4.371 -4.346 -4.303 -4.245  8.85266 13.92174 -9.74208
 3.44 1.75 -4.266 -4.251 -4.227 -4.184 -4.127  9.05390 14.17355 -9.49021
 3.44 2.00 -4.128 -4.114 -4.090 -4.049 -3.995  9.25624 14.42651 -9.23710
 3.44 2.25 -3.978 -3.963 -3.941 -3.903 -3.853  9.45894 14.68178 -8.98184
 3.44 2.50 -3.821 -3.808 -3.787 -3.752 -3.706  9.66257 14.93992 -8.72377
 3.44 2.75 -3.667 -3.655 -3.636 -3.605 -3.563  9.86786 15.20302 -8.46069
 3.44 3.00 -3.519 -3.508 -3.491 -3.463 -3.426 10.07445 15.47056 -8.19314
 3.44 3.20 -3.409 -3.400 -3.385 -3.360 -3.326 10.24116 15.68936 -7.97421
 3.44 3.40 -3.307 -3.299 -3.286 -3.263 -3.233 10.40787 15.90921 -7.75430
 3.44 3.60 -3.213 -3.206 -3.194 -3.175 -3.147 10.57338 16.13013 -7.53341
 3.44 3.80 -3.127 -3.121 -3.112 -3.095 -3.071 10.73524 16.35133 -7.31227
 3.44 4.00 -3.050 -3.046 -3.038 -3.023 -3.001 10.89382 16.57252 -7.09114
 3.44 4.20 -2.985 -2.982 -2.974 -2.961 -2.941 11.04438 16.79084 -6.87294
 3.44 4.40 -2.928 -2.925 -2.918 -2.906 -2.888 11.18927 17.00718 -6.65668
 3.44 4.60 -2.878 -2.876 -2.869 -2.858 -2.841 11.32787 17.22117 -6.44269
 3.44 4.80 -2.834 -2.831 -2.826 -2.815 -2.799 11.46152 17.43284 -6.23094
 3.44 5.00 -2.793 -2.790 -2.785 -2.775 -2.759 11.59129 17.64256 -6.02113
 3.44 5.20 -2.754 -2.751 -2.746 -2.736 -2.721 11.71777 17.85052 -5.81319
 3.44 5.40 -2.714 -2.712 -2.707 -2.697 -2.683 11.84248 18.05710 -5.60665
 3.44 5.60 -2.673 -2.670 -2.666 -2.657 -2.643 11.96575 18.26229 -5.40150
 3.44 5.80 -2.629 -2.626 -2.622 -2.614 -2.600 12.08806 18.46650 -5.19732
 3.44 6.00 -2.582 -2.580 -2.576 -2.567 -2.555 12.20925 18.66988 -4.99396
 3.44 6.25 -2.519 -2.517 -2.513 -2.505 -2.493 12.35958 18.92324 -4.74058
 3.44 6.50 -2.450 -2.448 -2.445 -2.438 -2.427 12.50799 19.17580 -4.48798
 3.44 6.75 -2.379 -2.377 -2.374 -2.367 -2.357 12.65383 19.42766 -4.23607
 3.44 7.00 -2.302 -2.301 -2.298 -2.292 -2.282 12.79692 19.67907 -3.98464
 3.44 7.25 -2.224 -2.222 -2.219 -2.214 -2.205 12.93659 19.93016 -3.73360
 3.44 7.50 -2.144 -2.142 -2.140 -2.134 -2.127 13.07335 20.18099 -3.48280
 3.44 7.75 -2.063 -2.062 -2.059 -2.054 -2.047 13.20747 20.43163 -3.23217
 3.44 8.00 -1.984 -1.982 -1.980 -1.976 -1.969 13.33885 20.68206 -2.98172
 3.46-2.00 -4.251 -4.246 -4.235 -4.217 -4.192  6.46864 10.39933-13.26440
 3.46-1.50 -4.296 -4.289 -4.277 -4.256 -4.228  6.88913 10.89927-12.76447
 3.46-1.00 -4.353 -4.345 -4.332 -4.308 -4.275  7.27944 11.39933-12.26432
 3.46-0.50 -4.412 -4.403 -4.387 -4.359 -4.322  7.63859 11.89933-11.76447
 3.46 0.00 -4.454 -4.444 -4.426 -4.393 -4.350  7.97382 12.39933-11.26432
 3.46 0.50 -4.457 -4.445 -4.424 -4.386 -4.335  8.29863 12.89944-10.76422
