
 ROSSELAND MASS ABSORPTION COEFFICENTS
 logT logP  0km/s  1km/s  2km/s  4km/s  8km/s  log Ne   log Na  log rho IPloCM-1
 3.32-2.00 -5.183 -5.171 -5.152 -5.122 -5.086  5.37894 10.53983-13.12378
 3.32-1.50 -5.217 -5.203 -5.182 -5.150 -5.113  5.79435 11.04060-12.62288
 3.32-1.00 -5.261 -5.246 -5.224 -5.192 -5.155  6.19756 11.54357-12.12004
 3.32-0.50 -5.304 -5.289 -5.268 -5.234 -5.197  6.60282 12.05192-11.61172
 3.32 0.00 -5.330 -5.315 -5.293 -5.260 -5.222  7.02694 12.57322-11.09044
 3.32 0.50 -5.333 -5.318 -5.295 -5.262 -5.225  7.46374 13.11428-10.54929
 3.32 1.00 -5.326 -5.310 -5.288 -5.255 -5.217  7.87593 13.66792 -9.99568
 3.32 1.25 -5.320 -5.304 -5.283 -5.250 -5.212  8.06441 13.94301 -9.72065
 3.32 1.50 -5.313 -5.297 -5.276 -5.243 -5.206  8.24378 14.21617 -9.44758
 3.32 1.75 -5.301 -5.286 -5.265 -5.233 -5.198  8.41410 14.48506 -9.17861
 3.32 2.00 -5.286 -5.271 -5.251 -5.220 -5.186  8.58070 14.75066 -8.91293
 3.32 2.25 -5.264 -5.250 -5.230 -5.202 -5.168  8.74427 15.01289 -8.65074
 3.32 2.50 -5.237 -5.223 -5.204 -5.177 -5.145  8.90784 15.27254 -8.39115
 3.32 2.75 -5.201 -5.189 -5.170 -5.145 -5.114  9.07294 15.52995 -8.13381
 3.32 3.00 -5.159 -5.146 -5.129 -5.105 -5.076  9.23880 15.78569 -7.87811
 3.32 3.20 -5.117 -5.105 -5.089 -5.067 -5.039  9.37220 15.98926 -7.67455
 3.32 3.40 -5.069 -5.059 -5.045 -5.023 -4.996  9.50559 16.19216 -7.47161
 3.32 3.60 -5.017 -5.007 -4.994 -4.974 -4.949  9.63787 16.39442 -7.26926
 3.32 3.80 -4.958 -4.949 -4.938 -4.919 -4.895  9.76723 16.59624 -7.06733
 3.32 4.00 -4.893 -4.886 -4.876 -4.859 -4.837  9.89421 16.79768 -6.86582
 3.32 4.20 -4.832 -4.826 -4.816 -4.800 -4.778 10.01693 16.99883 -6.66475
 3.32 4.40 -4.766 -4.760 -4.750 -4.734 -4.712 10.13649 17.19977 -6.46388
 3.32 4.60 -4.696 -4.689 -4.679 -4.664 -4.643 10.25272 17.40052 -6.26315
 3.32 4.80 -4.621 -4.614 -4.604 -4.589 -4.567 10.36617 17.60113 -6.06252
 3.32 5.00 -4.538 -4.532 -4.522 -4.507 -4.485 10.47712 17.80161 -5.86201
 3.32 5.20 -4.446 -4.440 -4.431 -4.416 -4.394 10.58583 18.00194 -5.66170
 3.32 5.40 -4.344 -4.338 -4.330 -4.315 -4.294 10.69296 18.20222 -5.46143
 3.32 5.60 -4.229 -4.224 -4.216 -4.201 -4.181 10.79862 18.40246 -5.26118
 3.32 5.80 -4.097 -4.093 -4.086 -4.073 -4.053 10.90326 18.60267 -5.06095
 3.32 6.00 -3.947 -3.943 -3.937 -3.925 -3.907 11.00690 18.80284 -4.86075
 3.32 6.25 -3.727 -3.724 -3.719 -3.708 -3.692 11.13523 19.05291 -4.61068
 3.32 6.50 -3.460 -3.457 -3.453 -3.445 -3.432 11.26269 19.30298 -4.36061
 3.32 6.75 -3.135 -3.133 -3.130 -3.123 -3.114 11.38959 19.55312 -4.11053
 3.32 7.00 -2.930 -2.929 -2.926 -2.921 -2.913 11.51587 19.80325 -3.86044
 3.32 7.25 -2.822 -2.820 -2.818 -2.813 -2.805 11.64160 20.05322 -3.61042
 3.32 7.50 -2.718 -2.716 -2.714 -2.709 -2.703 11.76671 20.30320 -3.36041
 3.32 7.75 -2.617 -2.616 -2.613 -2.609 -2.604 11.89115 20.55326 -3.11042
 3.32 8.00 -2.521 -2.519 -2.517 -2.513 -2.508 12.01494 20.80339 -2.86044
 3.34-2.00 -5.115 -5.105 -5.088 -5.060 -5.024  5.45117 10.51943-13.14424
 3.34-1.50 -5.128 -5.116 -5.097 -5.065 -5.027  5.89092 11.01953-12.64397
 3.34-1.00 -5.149 -5.134 -5.113 -5.079 -5.039  6.31302 11.52061-12.14303
 3.34-0.50 -5.176 -5.160 -5.137 -5.101 -5.060  6.72008 12.02325-11.64035
 3.34 0.00 -5.197 -5.179 -5.155 -5.119 -5.078  7.12353 12.53148-11.13224
 3.34 0.50 -5.189 -5.171 -5.146 -5.110 -5.069  7.54020 13.05231-10.61154
 3.34 1.00 -5.143 -5.125 -5.101 -5.064 -5.023  7.97350 13.59284-10.07084
 3.34 1.25 -5.111 -5.094 -5.069 -5.033 -4.992  8.18499 13.86949 -9.79420
 3.34 1.50 -5.079 -5.062 -5.038 -5.002 -4.962  8.39058 14.14613 -9.51756
 3.34 1.75 -5.048 -5.031 -5.008 -4.973 -4.933  8.58216 14.42132 -9.24240
 3.34 2.00 -5.019 -5.002 -4.979 -4.946 -4.907  8.76410 14.69478 -8.96900
 3.34 2.25 -4.988 -4.972 -4.950 -4.918 -4.881  8.93614 14.96388 -8.69980
 3.34 2.50 -4.958 -4.943 -4.921 -4.890 -4.855  9.10312 15.22968 -8.43392
 3.34 2.75 -4.924 -4.909 -4.888 -4.859 -4.825  9.26547 15.49214 -8.17160
 3.34 3.00 -4.885 -4.871 -4.851 -4.824 -4.792  9.42781 15.75197 -7.91186
 3.34 3.20 -4.849 -4.836 -4.817 -4.791 -4.760  9.55781 15.95812 -7.70563
 3.34 3.40 -4.808 -4.795 -4.779 -4.754 -4.724  9.68793 16.16318 -7.50052
 3.34 3.60 -4.761 -4.750 -4.734 -4.712 -4.684  9.81842 16.36718 -7.29653
 3.34 3.80 -4.708 -4.698 -4.685 -4.664 -4.638  9.94916 16.57046 -7.09332
 3.34 4.00 -4.650 -4.642 -4.630 -4.612 -4.588 10.07990 16.77306 -6.89076
 3.34 4.20 -4.596 -4.589 -4.578 -4.560 -4.535 10.20830 16.97506 -6.68867
 3.34 4.40 -4.539 -4.532 -4.522 -4.504 -4.480 10.33466 17.17669 -6.48697
 3.34 4.60 -4.481 -4.474 -4.464 -4.446 -4.424 10.45822 17.37802 -6.28565
 3.34 4.80 -4.422 -4.415 -4.406 -4.388 -4.365 10.57835 17.57914 -6.08457
 3.34 5.00 -4.360 -4.354 -4.344 -4.328 -4.305 10.69557 17.78003 -5.88373
 3.34 5.20 -4.298 -4.292 -4.282 -4.266 -4.243 10.80968 17.98072 -5.68305
 3.34 5.40 -4.233 -4.228 -4.218 -4.203 -4.180 10.92144 18.18127 -5.48250
 3.34 5.60 -4.167 -4.161 -4.153 -4.137 -4.115 11.03088 18.38168 -5.28205
 3.34 5.80 -4.099 -4.094 -4.086 -4.071 -4.049 11.13860 18.58201 -5.08169
 3.34 6.00 -4.030 -4.025 -4.017 -4.003 -3.981 11.24477 18.78226 -4.88141
 3.34 6.25 -3.942 -3.937 -3.930 -3.916 -3.895 11.37577 19.03244 -4.63118
 3.34 6.50 -3.853 -3.848 -3.841 -3.828 -3.808 11.50529 19.28262 -4.38101
 3.34 6.75 -3.763 -3.758 -3.752 -3.739 -3.720 11.63363 19.53280 -4.13086
 3.34 7.00 -3.672 -3.668 -3.662 -3.650 -3.632 11.76103 19.78298 -3.88074
 3.34 7.25 -3.582 -3.578 -3.572 -3.560 -3.544 11.88773 20.03303 -3.63067
 3.34 7.50 -3.491 -3.488 -3.482 -3.471 -3.456 12.01368 20.28308 -3.38059
 3.34 7.75 -3.402 -3.398 -3.392 -3.382 -3.368 12.13891 20.53313 -3.13051
 3.34 8.00 -3.312 -3.308 -3.303 -3.293 -3.281 12.26340 20.78319 -2.88041
 3.36-2.00 -5.030 -5.020 -5.004 -4.977 -4.943  5.54494 10.49941-13.16431
 3.36-1.50 -5.061 -5.051 -5.032 -5.003 -4.966  5.96431 10.99944-12.66414
 3.36-1.00 -5.071 -5.058 -5.038 -5.005 -4.965  6.39933 11.49982-12.16393
 3.36-0.50 -5.075 -5.061 -5.038 -5.002 -4.959  6.82497 12.00087-11.66294
 3.36 0.00 -5.076 -5.058 -5.033 -4.995 -4.950  7.23578 12.50352-11.16015
 3.36 0.50 -5.054 -5.036 -5.008 -4.969 -4.924  7.63988 13.01157-10.65189
 3.36 1.00 -4.990 -4.971 -4.944 -4.904 -4.859  8.05231 13.53288-10.13077
 3.36 1.25 -4.940 -4.921 -4.895 -4.855 -4.811  8.26666 13.80159 -9.86216
 3.36 1.50 -4.883 -4.865 -4.837 -4.799 -4.755  8.48101 14.07408 -9.58973
 3.36 1.75 -4.823 -4.804 -4.778 -4.740 -4.698  8.69221 14.35078 -9.31299
 3.36 2.00 -4.764 -4.745 -4.720 -4.684 -4.642  8.89922 14.62747 -9.03626
 3.36 2.25 -4.709 -4.690 -4.666 -4.631 -4.591  9.09237 14.90256 -8.76119
 3.36 2.50 -4.659 -4.641 -4.618 -4.585 -4.546  9.27577 15.17580 -8.48798
 3.36 2.75 -4.612 -4.595 -4.574 -4.541 -4.505  9.44866 15.44474 -8.21889
 3.36 3.00 -4.568 -4.552 -4.531 -4.501 -4.465  9.61574 15.71037 -7.95312
 3.36 3.20 -4.530 -4.516 -4.496 -4.468 -4.433  9.74539 15.92034 -7.74314
 3.36 3.40 -4.491 -4.477 -4.459 -4.433 -4.400  9.87440 16.12868 -7.53485
 3.36 3.60 -4.447 -4.436 -4.420 -4.395 -4.364 10.00281 16.33545 -7.32820
 3.36 3.80 -4.400 -4.390 -4.376 -4.353 -4.325 10.13108 16.54104 -7.12272
 3.36 4.00 -4.348 -4.340 -4.328 -4.308 -4.282 10.25935 16.74554 -6.91829
 3.36 4.20 -4.299 -4.292 -4.281 -4.261 -4.235 10.38766 16.94904 -6.71467
 3.36 4.40 -4.247 -4.240 -4.229 -4.210 -4.186 10.51597 17.15190 -6.51172
 3.36 4.60 -4.192 -4.185 -4.175 -4.158 -4.134 10.64342 17.35420 -6.30946
 3.36 4.80 -4.136 -4.130 -4.119 -4.102 -4.079 10.76861 17.55611 -6.10767
 3.36 5.00 -4.077 -4.071 -4.061 -4.044 -4.021 10.89193 17.75762 -5.90623
 3.36 5.20 -4.016 -4.010 -4.001 -3.985 -3.962 11.01191 17.95877 -5.70503
 3.36 5.40 -3.952 -3.947 -3.938 -3.923 -3.901 11.12927 18.15969 -5.50404
 3.36 5.60 -3.887 -3.882 -3.874 -3.859 -3.837 11.24381 18.36042 -5.30323
 3.36 5.80 -3.820 -3.815 -3.808 -3.794 -3.773 11.35591 18.56101 -5.10256
 3.36 6.00 -3.752 -3.747 -3.740 -3.726 -3.706 11.46583 18.76148 -4.90205
 3.36 6.25 -3.664 -3.660 -3.653 -3.641 -3.622 11.60057 19.01188 -4.65170
 3.36 6.50 -3.576 -3.572 -3.566 -3.554 -3.536 11.73304 19.26221 -4.40143
 3.36 6.75 -3.486 -3.483 -3.477 -3.466 -3.449 11.86366 19.51252 -4.15120
 3.36 7.00 -3.397 -3.393 -3.388 -3.377 -3.362 11.99282 19.76275 -3.90101
 3.36 7.25 -3.307 -3.304 -3.299 -3.289 -3.274 12.12078 20.01284 -3.65087
 3.36 7.50 -3.217 -3.214 -3.209 -3.200 -3.187 12.24773 20.26293 -3.40077
 3.36 7.75 -3.129 -3.126 -3.121 -3.113 -3.100 12.37387 20.51302 -3.15070
 3.36 8.00 -3.040 -3.037 -3.033 -3.025 -3.014 12.49914 20.76313 -2.90067
 3.38-2.00 -4.876 -4.868 -4.853 -4.828 -4.795  5.73576 10.47929-13.18436
 3.38-1.50 -4.952 -4.943 -4.926 -4.899 -4.863  6.09272 10.97937-12.68424
 3.38-1.00 -4.994 -4.983 -4.965 -4.934 -4.895  6.48671 11.47943-12.18422
 3.38-0.50 -5.001 -4.989 -4.967 -4.933 -4.890  6.90870 11.97978-11.68382
 3.38 0.00 -4.984 -4.968 -4.945 -4.907 -4.860  7.33304 12.48073-11.18290
 3.38 0.50 -4.941 -4.923 -4.897 -4.856 -4.807  7.74609 12.98376-10.67985
 3.38 1.00 -4.855 -4.835 -4.807 -4.765 -4.716  8.15168 13.49262-10.17108
 3.38 1.25 -4.793 -4.773 -4.745 -4.703 -4.655  8.35606 13.75177 -9.91195
 3.38 1.50 -4.719 -4.699 -4.670 -4.629 -4.581  8.56229 14.01494 -9.64878
 3.38 1.75 -4.636 -4.616 -4.589 -4.548 -4.502  8.77464 14.28425 -9.37949
 3.38 2.00 -4.548 -4.529 -4.502 -4.463 -4.418  8.98700 14.55715 -9.10657
 3.38 2.25 -4.461 -4.442 -4.417 -4.379 -4.337  9.19705 14.83387 -8.82978
 3.38 2.50 -4.380 -4.362 -4.338 -4.302 -4.262  9.40381 15.11059 -8.55300
 3.38 2.75 -4.306 -4.290 -4.268 -4.234 -4.195  9.59723 15.38546 -8.27813
 3.38 3.00 -4.242 -4.227 -4.206 -4.175 -4.138  9.78104 15.65830 -8.00533
 3.38 3.20 -4.194 -4.180 -4.161 -4.132 -4.097  9.91998 15.87335 -7.79026
 3.38 3.40 -4.149 -4.137 -4.119 -4.092 -4.059 10.05493 16.08632 -7.57729
 3.38 3.60 -4.105 -4.094 -4.078 -4.054 -4.022 10.18571 16.29711 -7.36655
 3.38 3.80 -4.060 -4.050 -4.036 -4.015 -3.985 10.31444 16.50607 -7.15767
 3.38 4.00 -4.013 -4.005 -3.994 -3.974 -3.947 10.44201 16.71341 -6.95039
 3.38 4.20 -3.970 -3.964 -3.953 -3.934 -3.908 10.56892 16.91925 -6.74450
 3.38 4.40 -3.925 -3.919 -3.909 -3.891 -3.865 10.69547 17.12407 -6.53964
 3.38 4.60 -3.878 -3.871 -3.862 -3.845 -3.822 10.82184 17.32791 -6.33572
 3.38 4.80 -3.828 -3.822 -3.813 -3.797 -3.774 10.94798 17.53108 -6.13250
 3.38 5.00 -3.776 -3.770 -3.761 -3.745 -3.723 11.07372 17.73360 -5.92996
 3.38 5.20 -3.720 -3.715 -3.706 -3.691 -3.669 11.19752 17.93556 -5.72812
 3.38 5.40 -3.660 -3.656 -3.648 -3.634 -3.613 11.31953 18.13714 -5.52661
 3.38 5.60 -3.598 -3.594 -3.587 -3.573 -3.553 11.43923 18.33838 -5.32534
 3.38 5.80 -3.534 -3.530 -3.524 -3.511 -3.491 11.55621 18.53940 -5.12424
 3.38 6.00 -3.468 -3.465 -3.458 -3.446 -3.427 11.67080 18.74021 -4.92336
 3.38 6.25 -3.384 -3.380 -3.374 -3.363 -3.345 11.81052 18.99097 -4.67272
 3.38 6.50 -3.298 -3.294 -3.289 -3.278 -3.261 11.94714 19.24155 -4.42216
 3.38 6.75 -3.210 -3.206 -3.201 -3.191 -3.176 12.08099 19.49199 -4.17163
 3.38 7.00 -3.121 -3.118 -3.114 -3.104 -3.091 12.21272 19.74233 -3.92118
 3.38 7.25 -3.033 -3.030 -3.026 -3.017 -3.004 12.34274 19.99259 -3.67100
 3.38 7.50 -2.944 -2.941 -2.937 -2.929 -2.918 12.47129 20.24279 -3.42090
 3.38 7.75 -2.856 -2.854 -2.850 -2.843 -2.833 12.59867 20.49294 -3.17084
 3.38 8.00 -2.769 -2.766 -2.763 -2.756 -2.747 12.72477 20.74304 -2.92082
 3.40-2.00 -4.682 -4.675 -4.661 -4.638 -4.608  5.97978 10.45939-13.20433
 3.40-1.50 -4.784 -4.776 -4.761 -4.735 -4.701  6.30728 10.95933-12.70443
 3.40-1.00 -4.865 -4.855 -4.838 -4.808 -4.771  6.64768 11.45939-12.20426
 3.40-0.50 -4.909 -4.898 -4.878 -4.845 -4.803  7.01787 11.95947-11.70421
 3.40 0.00 -4.905 -4.893 -4.870 -4.833 -4.787  7.42160 12.45984-11.20384
 3.40 0.50 -4.853 -4.838 -4.813 -4.773 -4.722  7.83935 12.96095-10.70268
 3.40 1.00 -4.748 -4.730 -4.703 -4.660 -4.609  8.25212 13.46434-10.19935
 3.40 1.25 -4.672 -4.654 -4.627 -4.583 -4.531  8.45559 13.71811 -9.94555
 3.40 1.50 -4.581 -4.562 -4.534 -4.490 -4.440  8.65906 13.97410 -9.68952
 3.40 1.75 -4.480 -4.460 -4.432 -4.390 -4.341  8.86354 14.23410 -9.42954
 3.40 2.00 -4.369 -4.350 -4.322 -4.282 -4.234  9.06930 14.49831 -9.16539
 3.40 2.25 -4.257 -4.239 -4.213 -4.174 -4.129  9.28012 14.76885 -8.89494
 3.40 2.50 -4.146 -4.129 -4.105 -4.069 -4.026  9.49094 15.04258 -8.62124
 3.40 2.75 -4.042 -4.027 -4.005 -3.972 -3.932  9.69937 15.31937 -8.34436
 3.40 3.00 -3.948 -3.935 -3.914 -3.884 -3.847  9.90445 15.59616 -8.06748
 3.40 3.20 -3.881 -3.869 -3.850 -3.822 -3.787 10.05912 15.81580 -7.84783
 3.40 3.40 -3.821 -3.810 -3.793 -3.767 -3.735 10.20780 16.03391 -7.62975
 3.40 3.60 -3.766 -3.756 -3.741 -3.718 -3.688 10.34967 16.24992 -7.41377
 3.40 3.80 -3.714 -3.706 -3.694 -3.673 -3.644 10.48613 16.46343 -7.20027
 3.40 4.00 -3.666 -3.659 -3.649 -3.631 -3.605 10.61847 16.67486 -6.98885
 3.40 4.20 -3.625 -3.619 -3.609 -3.591 -3.567 10.74708 16.88412 -6.77959
 3.40 4.40 -3.583 -3.577 -3.569 -3.552 -3.528 10.87423 17.09181 -6.57191
 3.40 4.60 -3.541 -3.536 -3.528 -3.513 -3.490 11.00020 17.29799 -6.36575
 3.40 4.80 -3.499 -3.494 -3.487 -3.472 -3.450 11.12553 17.50307 -6.16070
 3.40 5.00 -3.454 -3.450 -3.442 -3.428 -3.407 11.25018 17.70714 -5.95664
 3.40 5.20 -3.407 -3.402 -3.395 -3.381 -3.361 11.37457 17.91034 -5.75342
 3.40 5.40 -3.354 -3.350 -3.344 -3.331 -3.311 11.49816 18.11296 -5.55077
 3.40 5.60 -3.299 -3.296 -3.289 -3.277 -3.257 11.62066 18.31506 -5.34860
 3.40 5.80 -3.241 -3.237 -3.231 -3.219 -3.201 11.74134 18.51679 -5.14680
 3.40 6.00 -3.179 -3.176 -3.170 -3.159 -3.142 11.86028 18.71817 -4.94539
 3.40 6.25 -3.099 -3.096 -3.091 -3.080 -3.065 12.00523 18.96943 -4.69423
 3.40 6.50 -3.016 -3.013 -3.009 -2.999 -2.985 12.14675 19.22037 -4.44334
 3.40 6.75 -2.932 -2.929 -2.925 -2.916 -2.903 12.28476 19.47109 -4.19256
 3.40 7.00 -2.846 -2.843 -2.839 -2.831 -2.819 12.41996 19.72165 -3.94195
 3.40 7.25 -2.759 -2.757 -2.753 -2.746 -2.735 12.55270 19.97211 -3.69159
 3.40 7.50 -2.673 -2.670 -2.667 -2.660 -2.650 12.68341 20.22246 -3.44129
 3.40 7.75 -2.586 -2.584 -2.581 -2.575 -2.566 12.81251 20.47269 -3.19103
 3.40 8.00 -2.500 -2.499 -2.496 -2.490 -2.482 12.93987 20.72280 -2.94082
 3.42-2.00 -4.494 -4.487 -4.475 -4.454 -4.427  6.20385 10.43933-13.22432
 3.42-1.50 -4.593 -4.586 -4.572 -4.547 -4.516  6.54444 10.93937-12.72423
 3.42-1.00 -4.689 -4.680 -4.665 -4.637 -4.601  6.87186 11.43949-12.22424
 3.42-0.50 -4.762 -4.751 -4.733 -4.702 -4.662  7.20249 11.93942-11.72423
 3.42 0.00 -4.792 -4.780 -4.759 -4.724 -4.678  7.55461 12.43965-11.22410
 3.42 0.50 -4.762 -4.748 -4.724 -4.685 -4.633  7.93882 12.94002-10.72377
 3.42 1.00 -4.657 -4.642 -4.617 -4.574 -4.519  8.34537 13.44138-10.22236
 3.42 1.25 -4.575 -4.560 -4.533 -4.490 -4.435  8.55021 13.69286 -9.97089
 3.42 1.50 -4.474 -4.458 -4.431 -4.388 -4.334  8.75504 13.94527 -9.71851
 3.42 1.75 -4.357 -4.340 -4.314 -4.271 -4.219  8.95865 14.19964 -9.46408
 3.42 2.00 -4.227 -4.210 -4.183 -4.143 -4.092  9.16227 14.45652 -9.20712
 3.42 2.25 -4.092 -4.075 -4.051 -4.012 -3.964  9.36710 14.71784 -8.94587
 3.42 2.50 -3.956 -3.940 -3.917 -3.880 -3.836  9.57322 14.98354 -8.68027
 3.42 2.75 -3.826 -3.812 -3.791 -3.758 -3.717  9.78282 15.25553 -8.40816
 3.42 3.00 -3.704 -3.692 -3.673 -3.643 -3.606  9.99242 15.53007 -8.13354
 3.42 3.20 -3.614 -3.604 -3.587 -3.560 -3.525 10.15785 15.75144 -7.91214
 3.42 3.40 -3.533 -3.523 -3.509 -3.484 -3.452 10.32065 15.97282 -7.69074
 3.42 3.60 -3.459 -3.451 -3.438 -3.416 -3.387 10.47827 16.19329 -7.47027
 3.42 3.80 -3.392 -3.386 -3.375 -3.355 -3.329 10.62832 16.41156 -7.25205
 3.42 4.00 -3.333 -3.328 -3.319 -3.302 -3.278 10.77254 16.62808 -7.03560
 3.42 4.20 -3.284 -3.279 -3.270 -3.255 -3.233 10.90985 16.84171 -6.82197
 3.42 4.40 -3.238 -3.234 -3.227 -3.213 -3.191 11.04311 17.05332 -6.61034
 3.42 4.60 -3.197 -3.193 -3.186 -3.173 -3.152 11.17231 17.26290 -6.40075
 3.42 4.80 -3.158 -3.154 -3.147 -3.134 -3.115 11.29920 17.47087 -6.19279
 3.42 5.00 -3.118 -3.114 -3.108 -3.095 -3.077 11.42439 17.67733 -5.98632
 3.42 5.20 -3.076 -3.073 -3.067 -3.055 -3.037 11.54860 17.88243 -5.78119
 3.42 5.40 -3.032 -3.029 -3.023 -3.012 -2.995 11.67194 18.08661 -5.57698
 3.42 5.60 -2.985 -2.982 -2.977 -2.966 -2.949 11.79467 18.28996 -5.37360
 3.42 5.80 -2.934 -2.931 -2.926 -2.916 -2.900 11.91673 18.49274 -5.17080
 3.42 6.00 -2.880 -2.877 -2.872 -2.863 -2.848 12.03783 18.69496 -4.96859
 3.42 6.25 -2.808 -2.805 -2.801 -2.791 -2.777 12.18654 18.94707 -4.71660
 3.42 6.50 -2.731 -2.729 -2.724 -2.717 -2.703 12.33244 19.19866 -4.46509
 3.42 6.75 -2.652 -2.649 -2.645 -2.638 -2.626 12.47480 19.44982 -4.21389
 3.42 7.00 -2.569 -2.567 -2.564 -2.557 -2.546 12.61405 19.70070 -3.96297
 3.42 7.25 -2.486 -2.485 -2.481 -2.475 -2.465 12.75018 19.95141 -3.71232
 3.42 7.50 -2.402 -2.401 -2.398 -2.392 -2.383 12.88372 20.20194 -3.46180
 3.42 7.75 -2.319 -2.317 -2.314 -2.309 -2.301 13.01513 20.45231 -3.21135
 3.42 8.00 -2.235 -2.234 -2.231 -2.226 -2.219 13.14426 20.70252 -2.96098
 3.44-2.00 -4.344 -4.338 -4.326 -4.307 -4.281  6.36903 10.41929-13.24435
 3.44-1.50 -4.419 -4.412 -4.399 -4.376 -4.347  6.74788 10.91934-12.74425
 3.44-1.00 -4.504 -4.495 -4.481 -4.455 -4.421  7.09761 11.41946-12.24428
 3.44-0.50 -4.581 -4.572 -4.555 -4.526 -4.487  7.42797 11.91939-11.74425
 3.44 0.00 -4.630 -4.619 -4.599 -4.565 -4.520  7.75397 12.41946-11.24420
 3.44 0.50 -4.625 -4.612 -4.590 -4.550 -4.499  8.09307 12.91960-10.74401
 3.44 1.00 -4.546 -4.531 -4.507 -4.464 -4.407  8.45969 13.42012-10.24352
 3.44 1.25 -4.471 -4.456 -4.431 -4.387 -4.329  8.65429 13.67073 -9.99299
 3.44 1.50 -4.374 -4.358 -4.333 -4.289 -4.231  8.85266 13.92174 -9.74208
 3.44 1.75 -4.252 -4.237 -4.213 -4.170 -4.113  9.05390 14.17355 -9.49021
 3.44 2.00 -4.114 -4.100 -4.075 -4.035 -3.981  9.25624 14.42651 -9.23710
 3.44 2.25 -3.963 -3.949 -3.927 -3.888 -3.838  9.45894 14.68178 -8.98184
 3.44 2.50 -3.807 -3.794 -3.773 -3.737 -3.691  9.66257 14.93992 -8.72377
 3.44 2.75 -3.653 -3.641 -3.622 -3.590 -3.548  9.86786 15.20302 -8.46069
 3.44 3.00 -3.505 -3.494 -3.477 -3.448 -3.411 10.07445 15.47056 -8.19314
 3.44 3.20 -3.395 -3.386 -3.371 -3.345 -3.311 10.24116 15.68936 -7.97421
 3.44 3.40 -3.293 -3.285 -3.271 -3.248 -3.218 10.40787 15.90921 -7.75430
 3.44 3.60 -3.199 -3.191 -3.180 -3.160 -3.132 10.57338 16.13013 -7.53341
 3.44 3.80 -3.113 -3.107 -3.097 -3.080 -3.056 10.73524 16.35133 -7.31227
 3.44 4.00 -3.036 -3.031 -3.023 -3.008 -2.986 10.89382 16.57252 -7.09114
 3.44 4.20 -2.971 -2.967 -2.960 -2.946 -2.926 11.04438 16.79084 -6.87294
 3.44 4.40 -2.914 -2.910 -2.904 -2.891 -2.873 11.18927 17.00718 -6.65668
 3.44 4.60 -2.864 -2.861 -2.855 -2.843 -2.826 11.32787 17.22117 -6.44269
 3.44 4.80 -2.820 -2.817 -2.812 -2.801 -2.784 11.46152 17.43284 -6.23094
 3.44 5.00 -2.779 -2.776 -2.771 -2.761 -2.744 11.59129 17.64256 -6.02113
 3.44 5.20 -2.739 -2.736 -2.731 -2.722 -2.707 11.71777 17.85052 -5.81319
 3.44 5.40 -2.700 -2.698 -2.693 -2.683 -2.668 11.84248 18.05710 -5.60665
 3.44 5.60 -2.659 -2.656 -2.652 -2.643 -2.629 11.96575 18.26229 -5.40150
 3.44 5.80 -2.615 -2.612 -2.608 -2.600 -2.586 12.08806 18.46650 -5.19732
 3.44 6.00 -2.569 -2.567 -2.563 -2.554 -2.541 12.20925 18.66988 -4.99396
 3.44 6.25 -2.506 -2.504 -2.500 -2.492 -2.480 12.35958 18.92324 -4.74058
 3.44 6.50 -2.438 -2.436 -2.433 -2.426 -2.414 12.50799 19.17580 -4.48798
 3.44 6.75 -2.367 -2.365 -2.361 -2.354 -2.344 12.65383 19.42766 -4.23607
 3.44 7.00 -2.290 -2.289 -2.286 -2.280 -2.270 12.79692 19.67907 -3.98464
 3.44 7.25 -2.213 -2.211 -2.208 -2.203 -2.194 12.93659 19.93016 -3.73360
 3.44 7.50 -2.133 -2.131 -2.129 -2.123 -2.116 13.07335 20.18099 -3.48280
 3.44 7.75 -2.053 -2.052 -2.049 -2.044 -2.037 13.20747 20.43163 -3.23217
 3.44 8.00 -1.973 -1.971 -1.969 -1.965 -1.958 13.33885 20.68206 -2.98172
 3.46-2.00 -4.239 -4.234 -4.223 -4.205 -4.180  6.46864 10.39933-13.26440
 3.46-1.50 -4.285 -4.278 -4.266 -4.245 -4.217  6.88913 10.89927-12.76447
 3.46-1.00 -4.343 -4.335 -4.321 -4.297 -4.264  7.27944 11.39933-12.26432
 3.46-0.50 -4.403 -4.394 -4.377 -4.349 -4.312  7.63859 11.89933-11.76447
 3.46 0.00 -4.445 -4.435 -4.416 -4.383 -4.340  7.97382 12.39933-11.26432
 3.46 0.50 -4.447 -4.435 -4.413 -4.375 -4.325  8.29863 12.89944-10.76422
