
 ROSSELAND MASS ABSORPTION COEFFICENTS
 logT logP  0km/s  1km/s  2km/s  4km/s  8km/s  log Ne   log Na  log rho IPloCM-1
 3.32-2.00 -4.705 -4.683 -4.655 -4.615 -4.574  6.11227 10.53631-13.05968
 3.32-1.50 -4.766 -4.741 -4.712 -4.672 -4.630  6.51081 11.03743-12.55878
 3.32-1.00 -4.826 -4.802 -4.773 -4.733 -4.691  6.91787 11.54008-12.05596
 3.32-0.50 -4.878 -4.854 -4.825 -4.786 -4.744  7.33183 12.04844-11.54775
 3.32 0.00 -4.922 -4.898 -4.870 -4.830 -4.789  7.73336 12.56961-11.02636
 3.32 0.50 -4.963 -4.939 -4.911 -4.872 -4.830  8.10992 13.11126-10.48479
 3.32 1.00 -4.995 -4.971 -4.942 -4.904 -4.861  8.46479 13.66502 -9.93107
 3.32 1.25 -5.002 -4.978 -4.949 -4.910 -4.870  8.63616 13.94001 -9.65599
 3.32 1.50 -5.002 -4.978 -4.950 -4.911 -4.872  8.80713 14.21299 -9.38290
 3.32 1.75 -4.993 -4.969 -4.941 -4.903 -4.864  8.97787 14.48187 -9.11412
 3.32 2.00 -4.974 -4.951 -4.924 -4.887 -4.849  9.14860 14.74749 -8.84863
 3.32 2.25 -4.945 -4.923 -4.896 -4.861 -4.823  9.31977 15.00969 -8.58644
 3.32 2.50 -4.908 -4.886 -4.859 -4.826 -4.791  9.49094 15.26928 -8.32679
 3.32 2.75 -4.860 -4.840 -4.813 -4.782 -4.747  9.65839 15.52661 -8.06934
 3.32 3.00 -4.805 -4.785 -4.761 -4.731 -4.697  9.82210 15.78226 -7.81361
 3.32 3.20 -4.753 -4.734 -4.712 -4.682 -4.651  9.94816 15.98576 -7.61015
 3.32 3.40 -4.695 -4.679 -4.658 -4.631 -4.601 10.07070 16.18862 -7.40735
 3.32 3.60 -4.633 -4.618 -4.599 -4.575 -4.545 10.18951 16.39088 -7.20514
 3.32 3.80 -4.564 -4.552 -4.535 -4.513 -4.486 10.30509 16.59274 -7.00334
 3.32 4.00 -4.490 -4.481 -4.467 -4.447 -4.422 10.41780 16.79421 -6.80189
 3.32 4.20 -4.424 -4.415 -4.401 -4.381 -4.356 10.52795 16.99535 -6.60074
 3.32 4.40 -4.352 -4.343 -4.330 -4.311 -4.286 10.63622 17.19628 -6.39979
 3.32 4.60 -4.279 -4.270 -4.257 -4.238 -4.214 10.74271 17.39704 -6.19899
 3.32 4.80 -4.203 -4.194 -4.182 -4.162 -4.139 10.84798 17.59767 -5.99831
 3.32 5.00 -4.121 -4.112 -4.099 -4.080 -4.056 10.95211 17.79817 -5.79778
 3.32 5.20 -4.031 -4.023 -4.011 -3.992 -3.967 11.05540 17.99847 -5.59749
 3.32 5.40 -3.933 -3.924 -3.913 -3.894 -3.870 11.15796 18.19873 -5.39724
 3.32 5.60 -3.821 -3.814 -3.803 -3.786 -3.761 11.25984 18.39898 -5.19704
 3.32 5.80 -3.695 -3.689 -3.679 -3.662 -3.639 11.36120 18.59921 -4.99685
 3.32 6.00 -3.551 -3.546 -3.536 -3.521 -3.499 11.46210 18.79941 -4.79670
 3.32 6.25 -3.338 -3.333 -3.326 -3.312 -3.293 11.58776 19.04946 -4.54657
 3.32 6.50 -3.076 -3.072 -3.066 -3.056 -3.039 11.71282 19.29951 -4.29645
 3.32 6.75 -2.752 -2.749 -2.745 -2.736 -2.724 11.83734 19.54963 -4.04630
 3.32 7.00 -2.551 -2.549 -2.546 -2.538 -2.528 11.96118 19.79976 -3.79615
 3.32 7.25 -2.453 -2.451 -2.447 -2.441 -2.431 12.08430 20.04974 -3.54617
 3.32 7.50 -2.358 -2.355 -2.352 -2.345 -2.338 12.20629 20.29972 -3.29619
 3.32 7.75 -2.265 -2.263 -2.260 -2.253 -2.246 12.32614 20.54978 -3.04618
 3.32 8.00 -2.175 -2.173 -2.169 -2.164 -2.157 12.44420 20.79989 -2.79615
 3.34-2.00 -4.604 -4.584 -4.558 -4.519 -4.474  6.22660 10.51601-13.08009
 3.34-1.50 -4.633 -4.610 -4.581 -4.539 -4.493  6.63438 11.01620-12.57988
 3.34-1.00 -4.680 -4.655 -4.622 -4.580 -4.535  7.03302 11.51706-12.07889
 3.34-0.50 -4.731 -4.704 -4.672 -4.629 -4.583  7.43361 12.01995-11.57626
 3.34 0.00 -4.764 -4.738 -4.706 -4.663 -4.617  7.84255 12.52789-11.06819
 3.34 0.50 -4.768 -4.743 -4.711 -4.668 -4.623  8.24625 13.04844-10.54745
 3.34 1.00 -4.747 -4.722 -4.689 -4.647 -4.602  8.62829 13.58961-10.00643
 3.34 1.25 -4.730 -4.705 -4.673 -4.630 -4.585  8.80976 13.86647 -9.72958
 3.34 1.50 -4.712 -4.686 -4.653 -4.611 -4.567  8.98632 14.14333 -9.45272
 3.34 1.75 -4.689 -4.662 -4.631 -4.590 -4.547  9.15801 14.41851 -9.17749
 3.34 2.00 -4.663 -4.637 -4.606 -4.566 -4.524  9.32777 14.69179 -8.90413
 3.34 2.25 -4.632 -4.606 -4.575 -4.536 -4.495  9.49611 14.96084 -8.63515
 3.34 2.50 -4.595 -4.569 -4.540 -4.502 -4.462  9.66417 15.22660 -8.36947
 3.34 2.75 -4.549 -4.525 -4.497 -4.460 -4.422  9.83221 15.48892 -8.10714
 3.34 3.00 -4.497 -4.474 -4.447 -4.412 -4.377  9.99996 15.74865 -7.84741
 3.34 3.20 -4.448 -4.426 -4.401 -4.368 -4.333 10.13187 15.95481 -7.64127
 3.34 3.40 -4.393 -4.375 -4.352 -4.321 -4.288 10.26164 16.15986 -7.43624
 3.34 3.60 -4.335 -4.319 -4.299 -4.271 -4.239 10.38846 16.36384 -7.23229
 3.34 3.80 -4.273 -4.259 -4.241 -4.216 -4.186 10.51155 16.56705 -7.02909
 3.34 4.00 -4.207 -4.196 -4.181 -4.159 -4.131 10.63144 16.76960 -6.82652
 3.34 4.20 -4.150 -4.141 -4.126 -4.104 -4.078 10.74777 16.97160 -6.62443
 3.34 4.40 -4.093 -4.083 -4.069 -4.048 -4.021 10.86142 17.17324 -6.42273
 3.34 4.60 -4.036 -4.028 -4.014 -3.993 -3.966 10.97243 17.37456 -6.22144
 3.34 4.80 -3.982 -3.973 -3.960 -3.939 -3.913 11.08145 17.57567 -6.02041
 3.34 5.00 -3.926 -3.917 -3.904 -3.884 -3.857 11.18865 17.77656 -5.81959
 3.34 5.20 -3.870 -3.861 -3.847 -3.827 -3.801 11.29430 17.97727 -5.61887
 3.34 5.40 -3.811 -3.803 -3.790 -3.770 -3.743 11.39885 18.17784 -5.41828
 3.34 5.60 -3.750 -3.742 -3.730 -3.711 -3.684 11.50238 18.37825 -5.21786
 3.34 5.80 -3.688 -3.680 -3.668 -3.649 -3.623 11.60520 18.57857 -5.01755
 3.34 6.00 -3.624 -3.616 -3.605 -3.586 -3.560 11.70732 18.77880 -4.81730
 3.34 6.25 -3.543 -3.535 -3.524 -3.506 -3.481 11.83418 19.02903 -4.56701
 3.34 6.50 -3.459 -3.452 -3.442 -3.424 -3.399 11.96028 19.27921 -4.31677
 3.34 6.75 -3.374 -3.368 -3.358 -3.341 -3.318 12.08578 19.52938 -4.06658
 3.34 7.00 -3.289 -3.283 -3.273 -3.257 -3.234 12.21059 19.77952 -3.81645
 3.34 7.25 -3.203 -3.197 -3.188 -3.173 -3.151 12.33478 20.02961 -3.56643
 3.34 7.50 -3.116 -3.110 -3.102 -3.088 -3.068 12.45803 20.27967 -3.31641
 3.34 7.75 -3.030 -3.025 -3.017 -3.003 -2.984 12.57971 20.52971 -3.06632
 3.34 8.00 -2.944 -2.939 -2.931 -2.918 -2.901 12.70001 20.77974 -2.81616
 3.36-2.00 -4.543 -4.528 -4.507 -4.470 -4.427  6.30920 10.49582-13.10018
 3.36-1.50 -4.547 -4.528 -4.500 -4.460 -4.413  6.73743 10.99594-12.60015
 3.36-1.00 -4.561 -4.538 -4.507 -4.463 -4.413  7.14922 11.49624-12.09974
 3.36-0.50 -4.589 -4.562 -4.529 -4.484 -4.434  7.54925 11.99712-11.59894
 3.36 0.00 -4.615 -4.587 -4.552 -4.506 -4.456  7.94675 12.49996-11.09604
 3.36 0.50 -4.609 -4.581 -4.546 -4.499 -4.450  8.35025 13.00817-10.58788
 3.36 1.00 -4.549 -4.521 -4.486 -4.440 -4.391  8.75343 13.52930-10.06672
 3.36 1.25 -4.502 -4.475 -4.439 -4.393 -4.345  8.94878 13.79790 -9.79806
 3.36 1.50 -4.451 -4.422 -4.388 -4.343 -4.295  9.13893 14.07041 -9.52549
 3.36 1.75 -4.398 -4.370 -4.335 -4.292 -4.245  9.32188 14.34740 -9.24846
 3.36 2.00 -4.347 -4.320 -4.287 -4.244 -4.198  9.49928 14.62439 -8.97143
 3.36 2.25 -4.299 -4.273 -4.240 -4.198 -4.154  9.67096 14.89951 -8.69634
 3.36 2.50 -4.253 -4.227 -4.195 -4.155 -4.112  9.83979 15.17260 -8.42331
 3.36 2.75 -4.203 -4.179 -4.149 -4.110 -4.069 10.00661 15.44153 -8.15438
 3.36 3.00 -4.152 -4.130 -4.102 -4.065 -4.025 10.17231 15.70715 -7.88874
 3.36 3.20 -4.106 -4.084 -4.058 -4.024 -3.986 10.30464 15.91708 -7.67883
 3.36 3.40 -4.057 -4.038 -4.014 -3.981 -3.944 10.43623 16.12538 -7.47056
 3.36 3.60 -4.003 -3.987 -3.965 -3.934 -3.900 10.56672 16.33212 -7.26386
 3.36 3.80 -3.944 -3.931 -3.912 -3.885 -3.852 10.69518 16.53769 -7.05833
 3.36 4.00 -3.882 -3.872 -3.856 -3.832 -3.803 10.82164 16.74217 -6.85387
 3.36 4.20 -3.830 -3.820 -3.805 -3.782 -3.753 10.94458 16.94566 -6.65036
 3.36 4.40 -3.775 -3.766 -3.752 -3.730 -3.701 11.06460 17.14851 -6.44749
 3.36 4.60 -3.722 -3.714 -3.701 -3.679 -3.651 11.18148 17.35077 -6.24525
 3.36 4.80 -3.673 -3.664 -3.651 -3.630 -3.602 11.29551 17.55264 -6.04341
 3.36 5.00 -3.620 -3.612 -3.600 -3.579 -3.552 11.40705 17.75412 -5.84194
 3.36 5.20 -3.569 -3.561 -3.549 -3.529 -3.501 11.51632 17.95520 -5.64076
 3.36 5.40 -3.515 -3.507 -3.495 -3.476 -3.449 11.62390 18.15610 -5.43981
 3.36 5.60 -3.458 -3.451 -3.439 -3.421 -3.394 11.72987 18.35686 -5.23908
 3.36 5.80 -3.399 -3.392 -3.382 -3.363 -3.338 11.83470 18.55753 -5.03849
 3.36 6.00 -3.339 -3.332 -3.322 -3.304 -3.279 11.93847 18.75808 -4.83803
 3.36 6.25 -3.261 -3.254 -3.245 -3.227 -3.203 12.06703 19.00854 -4.58758
 3.36 6.50 -3.181 -3.174 -3.165 -3.149 -3.126 12.19451 19.25888 -4.33724
 3.36 6.75 -3.098 -3.092 -3.083 -3.068 -3.046 12.32116 19.50911 -4.08703
 3.36 7.00 -3.013 -3.009 -3.001 -2.986 -2.965 12.44700 19.75929 -3.83684
 3.36 7.25 -2.929 -2.924 -2.917 -2.903 -2.883 12.57222 20.00946 -3.58665
 3.36 7.50 -2.844 -2.839 -2.832 -2.819 -2.801 12.69653 20.25960 -3.33649
 3.36 7.75 -2.759 -2.754 -2.748 -2.735 -2.719 12.81953 20.50966 -3.08635
 3.36 8.00 -2.674 -2.670 -2.664 -2.652 -2.636 12.94136 20.75967 -2.83624
 3.38-2.00 -4.465 -4.453 -4.435 -4.404 -4.365  6.40209 10.47582-13.12022
 3.38-1.50 -4.486 -4.471 -4.448 -4.411 -4.366  6.82000 10.97580-12.62015
 3.38-1.00 -4.484 -4.465 -4.438 -4.396 -4.345  7.24527 11.47596-12.12004
 3.38-0.50 -4.481 -4.458 -4.426 -4.380 -4.326  7.65897 11.97626-11.61979
 3.38 0.00 -4.480 -4.453 -4.418 -4.370 -4.315  8.06070 12.47727-11.11879
 3.38 0.50 -4.460 -4.431 -4.394 -4.345 -4.290  8.45652 12.98023-10.61583
 3.38 1.00 -4.386 -4.356 -4.319 -4.268 -4.214  8.85588 13.48897-10.10702
 3.38 1.25 -4.322 -4.293 -4.255 -4.206 -4.153  9.05642 13.74803 -9.84795
 3.38 1.50 -4.245 -4.215 -4.178 -4.129 -4.077  9.25696 14.01115 -9.58486
 3.38 1.75 -4.158 -4.129 -4.094 -4.047 -3.996  9.45273 14.28065 -9.31540
 3.38 2.00 -4.073 -4.046 -4.011 -3.965 -3.917  9.64395 14.55376 -9.04230
 3.38 2.25 -3.993 -3.967 -3.934 -3.890 -3.842  9.82750 14.83066 -8.76534
 3.38 2.50 -3.923 -3.898 -3.866 -3.824 -3.779 10.00518 15.10755 -8.48838
 3.38 2.75 -3.857 -3.834 -3.805 -3.765 -3.721 10.17682 15.38245 -8.21351
 3.38 3.00 -3.799 -3.777 -3.750 -3.713 -3.670 10.34479 15.65523 -7.94082
 3.38 3.20 -3.752 -3.731 -3.706 -3.671 -3.630 10.47698 15.87030 -7.72582
 3.38 3.40 -3.704 -3.687 -3.663 -3.630 -3.592 10.60812 16.08325 -7.51293
 3.38 3.60 -3.655 -3.640 -3.618 -3.588 -3.552 10.73858 16.29396 -7.30222
 3.38 3.80 -3.602 -3.589 -3.571 -3.543 -3.510 10.86838 16.50280 -7.09333
 3.38 4.00 -3.547 -3.537 -3.521 -3.497 -3.465 10.99717 16.71003 -6.88606
 3.38 4.20 -3.498 -3.489 -3.474 -3.451 -3.421 11.12424 16.91588 -6.68020
 3.38 4.40 -3.448 -3.439 -3.426 -3.404 -3.375 11.24933 17.12070 -6.47538
 3.38 4.60 -3.400 -3.392 -3.379 -3.359 -3.331 11.37189 17.32452 -6.27152
 3.38 4.80 -3.354 -3.346 -3.335 -3.314 -3.286 11.49144 17.52765 -6.06834
 3.38 5.00 -3.307 -3.299 -3.287 -3.268 -3.240 11.60831 17.73014 -5.86582
 3.38 5.20 -3.260 -3.253 -3.241 -3.222 -3.195 11.72223 17.93205 -5.66392
 3.38 5.40 -3.211 -3.204 -3.193 -3.174 -3.148 11.83391 18.13362 -5.46236
 3.38 5.60 -3.159 -3.153 -3.142 -3.124 -3.098 11.94341 18.33486 -5.26109
 3.38 5.80 -3.105 -3.099 -3.089 -3.071 -3.046 12.05122 18.53590 -5.06002
 3.38 6.00 -3.049 -3.043 -3.033 -3.017 -2.993 12.15746 18.73672 -4.85918
 3.38 6.25 -2.975 -2.969 -2.961 -2.945 -2.922 12.28831 18.98747 -4.60845
 3.38 6.50 -2.898 -2.893 -2.885 -2.870 -2.848 12.41764 19.23805 -4.35793
 3.38 6.75 -2.819 -2.814 -2.806 -2.793 -2.772 12.54587 19.48851 -4.10760
 3.38 7.00 -2.737 -2.733 -2.726 -2.713 -2.694 12.67302 19.73886 -3.85730
 3.38 7.25 -2.655 -2.650 -2.644 -2.633 -2.615 12.79926 19.98911 -3.60701
 3.38 7.50 -2.572 -2.567 -2.562 -2.550 -2.534 12.92449 20.23930 -3.35675
 3.38 7.75 -2.487 -2.484 -2.478 -2.468 -2.453 13.04863 20.48946 -3.10653
 3.38 8.00 -2.404 -2.400 -2.395 -2.385 -2.372 13.17173 20.73957 -2.85636
 3.40-2.00 -4.319 -4.310 -4.293 -4.266 -4.230  6.57507 10.45576-13.14032
 3.40-1.50 -4.387 -4.375 -4.356 -4.323 -4.282  6.93817 10.95574-12.64036
 3.40-1.00 -4.413 -4.398 -4.375 -4.337 -4.288  7.33566 11.45591-12.14014
 3.40-0.50 -4.406 -4.387 -4.359 -4.314 -4.260  7.75197 11.95598-11.63998
 3.40 0.00 -4.379 -4.357 -4.324 -4.274 -4.215  8.16465 12.45637-11.13966
 3.40 0.50 -4.333 -4.307 -4.271 -4.219 -4.159  8.56679 12.95742-10.63865
 3.40 1.00 -4.240 -4.211 -4.172 -4.119 -4.060  8.96227 13.46075-10.13519
 3.40 1.25 -4.168 -4.139 -4.099 -4.047 -3.989  9.16025 13.71451 -9.88149
 3.40 1.50 -4.076 -4.047 -4.008 -3.956 -3.898  9.35851 13.97049 -9.62562
 3.40 1.75 -3.971 -3.943 -3.905 -3.855 -3.799  9.55776 14.23049 -9.36559
 3.40 2.00 -3.859 -3.831 -3.795 -3.747 -3.694  9.75702 14.49471 -9.10133
 3.40 2.25 -3.746 -3.720 -3.687 -3.641 -3.592  9.95236 14.76522 -8.83084
 3.40 2.50 -3.642 -3.618 -3.588 -3.545 -3.497 10.14364 15.03902 -8.55705
 3.40 2.75 -3.548 -3.527 -3.498 -3.459 -3.413 10.32727 15.31604 -8.28001
 3.40 3.00 -3.467 -3.449 -3.423 -3.386 -3.343 10.50474 15.59307 -8.00296
 3.40 3.20 -3.409 -3.392 -3.368 -3.334 -3.293 10.64165 15.81274 -7.78324
 3.40 3.40 -3.356 -3.340 -3.319 -3.287 -3.249 10.77594 16.03082 -7.56513
 3.40 3.60 -3.305 -3.292 -3.273 -3.243 -3.207 10.90779 16.24674 -7.34919
 3.40 3.80 -3.254 -3.243 -3.226 -3.200 -3.166 11.03810 16.46018 -7.13578
 3.40 4.00 -3.204 -3.194 -3.181 -3.157 -3.126 11.16702 16.67154 -6.92445
 3.40 4.20 -3.159 -3.151 -3.138 -3.115 -3.086 11.29531 16.88079 -6.71526
 3.40 4.40 -3.114 -3.106 -3.094 -3.073 -3.045 11.42229 17.08848 -6.50763
 3.40 4.60 -3.070 -3.063 -3.052 -3.033 -3.005 11.54787 17.29463 -6.30152
 3.40 4.80 -3.029 -3.023 -3.012 -2.993 -2.965 11.67152 17.49968 -6.09649
 3.40 5.00 -2.986 -2.979 -2.969 -2.951 -2.924 11.79316 17.70372 -5.89245
 3.40 5.20 -2.944 -2.938 -2.928 -2.910 -2.884 11.91183 17.90690 -5.68919
 3.40 5.40 -2.899 -2.894 -2.884 -2.866 -2.841 12.02808 18.10950 -5.48653
 3.40 5.60 -2.852 -2.846 -2.838 -2.821 -2.797 12.14182 18.31158 -5.28444
 3.40 5.80 -2.803 -2.798 -2.789 -2.774 -2.750 12.25336 18.51330 -5.08275
 3.40 6.00 -2.752 -2.747 -2.739 -2.724 -2.701 12.36286 18.71467 -4.88141
 3.40 6.25 -2.684 -2.680 -2.671 -2.657 -2.636 12.49708 18.96597 -4.63012
 3.40 6.50 -2.612 -2.608 -2.601 -2.588 -2.568 12.62910 19.21696 -4.37914
 3.40 6.75 -2.537 -2.533 -2.527 -2.515 -2.496 12.75936 19.46771 -4.12836
 3.40 7.00 -2.460 -2.456 -2.450 -2.439 -2.422 12.88812 19.71825 -3.87778
 3.40 7.25 -2.380 -2.377 -2.371 -2.361 -2.345 13.01570 19.96853 -3.62743
 3.40 7.50 -2.299 -2.296 -2.291 -2.281 -2.267 13.14208 20.21880 -3.37716
 3.40 7.75 -2.218 -2.214 -2.210 -2.201 -2.188 13.26734 20.46907 -3.12695
 3.40 8.00 -2.136 -2.133 -2.129 -2.121 -2.109 13.39146 20.71933 -2.87680
 3.42-2.00 -4.128 -4.120 -4.104 -4.079 -4.044  6.80428 10.43569-13.16033
 3.42-1.50 -4.228 -4.217 -4.201 -4.172 -4.133  7.13258 10.93571-12.66035
 3.42-1.00 -4.293 -4.281 -4.261 -4.227 -4.182  7.47900 11.43584-12.16021
 3.42-0.50 -4.314 -4.300 -4.275 -4.235 -4.183  7.85643 11.93586-11.66015
 3.42 0.00 -4.294 -4.276 -4.247 -4.199 -4.139  8.25936 12.43600-11.15996
 3.42 0.50 -4.233 -4.210 -4.177 -4.125 -4.059  8.66717 12.93646-10.65956
 3.42 1.00 -4.119 -4.094 -4.056 -4.001 -3.937  9.06856 13.43775-10.15820
 3.42 1.25 -4.036 -4.010 -3.971 -3.917 -3.853  9.26607 13.68924 -9.90670
 3.42 1.50 -3.933 -3.905 -3.867 -3.813 -3.751  9.46330 13.94171 -9.65423
 3.42 1.75 -3.817 -3.789 -3.752 -3.699 -3.639  9.66034 14.19611 -9.39990
 3.42 2.00 -3.688 -3.661 -3.625 -3.574 -3.517  9.85739 14.45301 -9.14309
 3.42 2.25 -3.554 -3.530 -3.496 -3.449 -3.396 10.05537 14.71425 -8.88184
 3.42 2.50 -3.421 -3.399 -3.369 -3.326 -3.276 10.25334 14.97987 -8.61619
 3.42 2.75 -3.298 -3.278 -3.252 -3.212 -3.165 10.44783 15.25200 -8.34402
 3.42 3.00 -3.187 -3.169 -3.146 -3.110 -3.067 10.63849 15.52673 -8.06931
 3.42 3.20 -3.108 -3.092 -3.070 -3.038 -2.998 10.78507 15.74829 -7.84781
 3.42 3.40 -3.037 -3.024 -3.005 -2.975 -2.938 10.92760 15.96985 -7.62631
 3.42 3.60 -2.974 -2.964 -2.946 -2.919 -2.884 11.06564 16.19040 -7.40575
 3.42 3.80 -2.917 -2.907 -2.892 -2.868 -2.836 11.20013 16.40857 -7.18749
 3.42 4.00 -2.864 -2.856 -2.844 -2.822 -2.793 11.33183 16.62490 -6.97102
 3.42 4.20 -2.819 -2.812 -2.801 -2.780 -2.753 11.46141 16.83846 -6.75746
 3.42 4.40 -2.775 -2.769 -2.759 -2.740 -2.713 11.58936 17.05001 -6.54593
 3.42 4.60 -2.735 -2.729 -2.720 -2.702 -2.676 11.71604 17.25956 -6.33648
 3.42 4.80 -2.697 -2.692 -2.682 -2.666 -2.641 11.84154 17.46749 -6.12865
 3.42 5.00 -2.658 -2.653 -2.644 -2.628 -2.603 11.96553 17.67394 -5.92227
 3.42 5.20 -2.621 -2.615 -2.607 -2.591 -2.568 12.08770 17.87905 -5.71710
 3.42 5.40 -2.581 -2.576 -2.568 -2.553 -2.530 12.20785 18.08323 -5.51284
 3.42 5.60 -2.538 -2.534 -2.526 -2.511 -2.490 12.32572 18.28655 -5.30945
 3.42 5.80 -2.494 -2.490 -2.483 -2.469 -2.448 12.44116 18.48927 -5.10668
 3.42 6.00 -2.447 -2.444 -2.437 -2.424 -2.404 12.55437 18.69143 -4.90448
 3.42 6.25 -2.386 -2.382 -2.376 -2.364 -2.345 12.69272 18.94349 -4.65242
 3.42 6.50 -2.320 -2.317 -2.311 -2.299 -2.282 12.82821 19.19507 -4.40088
 3.42 6.75 -2.252 -2.248 -2.243 -2.232 -2.216 12.96110 19.44630 -4.14980
 3.42 7.00 -2.180 -2.176 -2.172 -2.161 -2.147 13.09202 19.69723 -3.89894
 3.42 7.25 -2.104 -2.102 -2.097 -2.088 -2.074 13.22142 19.94789 -3.64820
 3.42 7.50 -2.027 -2.025 -2.021 -2.011 -1.999 13.34928 20.19838 -3.39761
 3.42 7.75 -1.949 -1.947 -1.942 -1.934 -1.923 13.47574 20.44878 -3.14717
 3.42 8.00 -1.870 -1.867 -1.863 -1.856 -1.847 13.60076 20.69906 -2.89688
 3.44-2.00 -3.932 -3.924 -3.910 -3.884 -3.849  7.02694 10.41547-13.18052
 3.44-1.50 -4.038 -4.030 -4.013 -3.984 -3.945  7.36022 10.91556-12.68048
 3.44-1.00 -4.128 -4.117 -4.099 -4.067 -4.023  7.68583 11.41564-12.18032
 3.44-0.50 -4.176 -4.164 -4.142 -4.106 -4.056  8.02078 11.91572-11.68027
 3.44 0.00 -4.178 -4.162 -4.137 -4.093 -4.035  8.38093 12.41581-11.18013
 3.44 0.50 -4.129 -4.110 -4.080 -4.028 -3.962  8.76864 12.91603-10.68006
 3.44 1.00 -4.014 -3.992 -3.958 -3.903 -3.832  9.16850 13.41664-10.17941
 3.44 1.25 -3.926 -3.904 -3.868 -3.812 -3.742  9.36798 13.66723 -9.92878
 3.44 1.50 -3.816 -3.793 -3.757 -3.701 -3.634  9.56691 13.91819 -9.67778
 3.44 1.75 -3.689 -3.665 -3.630 -3.576 -3.511  9.76407 14.16997 -9.42597
 3.44 2.00 -3.547 -3.523 -3.490 -3.438 -3.377  9.96071 14.42292 -9.17302
 3.44 2.25 -3.400 -3.378 -3.345 -3.298 -3.240 10.15693 14.67815 -8.91781
 3.44 2.50 -3.249 -3.228 -3.199 -3.155 -3.102 10.35315 14.93626 -8.65975
 3.44 2.75 -3.102 -3.085 -3.059 -3.019 -2.971 10.54993 15.19932 -8.39670
 3.44 3.00 -2.964 -2.949 -2.925 -2.891 -2.847 10.74671 15.46687 -8.12913
 3.44 3.20 -2.861 -2.848 -2.828 -2.796 -2.757 10.90145 15.68583 -7.91010
 3.44 3.40 -2.768 -2.757 -2.740 -2.712 -2.675 11.05361 15.90582 -7.69009
 3.44 3.60 -2.685 -2.676 -2.661 -2.635 -2.602 11.20186 16.12683 -7.46910
 3.44 3.80 -2.612 -2.603 -2.590 -2.569 -2.539 11.34506 16.34810 -7.24787
 3.44 4.00 -2.546 -2.539 -2.529 -2.510 -2.483 11.48416 16.56937 -7.02664
 3.44 4.20 -2.492 -2.487 -2.477 -2.460 -2.434 11.61860 16.78763 -6.80842
 3.44 4.40 -2.444 -2.439 -2.430 -2.414 -2.391 11.75016 17.00389 -6.59217
 3.44 4.60 -2.401 -2.397 -2.389 -2.373 -2.352 11.87903 17.21783 -6.37817
 3.44 4.80 -2.364 -2.359 -2.352 -2.337 -2.316 12.00606 17.42949 -6.16642
 3.44 5.00 -2.326 -2.322 -2.315 -2.301 -2.280 12.13130 17.63919 -5.95664
 3.44 5.20 -2.292 -2.288 -2.281 -2.267 -2.247 12.25543 17.84702 -5.74886
 3.44 5.40 -2.255 -2.252 -2.245 -2.233 -2.213 12.37792 18.05351 -5.54244
 3.44 5.60 -2.219 -2.215 -2.208 -2.196 -2.177 12.49867 18.25871 -5.33729
 3.44 5.80 -2.179 -2.175 -2.169 -2.158 -2.139 12.61742 18.46299 -5.13302
 3.44 6.00 -2.137 -2.134 -2.128 -2.117 -2.100 12.73416 18.66642 -4.92959
 3.44 6.25 -2.082 -2.079 -2.074 -2.063 -2.047 12.87677 18.91977 -4.67629
 3.44 6.50 -2.023 -2.020 -2.016 -2.006 -1.990 13.01620 19.17231 -4.42377
 3.44 6.75 -1.961 -1.958 -1.954 -1.944 -1.930 13.15249 19.42418 -4.17188
 3.44 7.00 -1.895 -1.892 -1.888 -1.880 -1.867 13.28623 19.67560 -3.92046
 3.44 7.25 -1.826 -1.823 -1.819 -1.811 -1.799 13.41780 19.92670 -3.66941
 3.44 7.50 -1.753 -1.752 -1.747 -1.740 -1.730 13.54741 20.17754 -3.41862
 3.44 7.75 -1.680 -1.677 -1.674 -1.667 -1.658 13.67533 20.42818 -3.16800
 3.44 8.00 -1.605 -1.602 -1.599 -1.593 -1.585 13.80147 20.67861 -2.91757
 3.46-2.00 -3.770 -3.761 -3.747 -3.721 -3.685  7.20112 10.39533-13.20073
 3.46-1.50 -3.854 -3.845 -3.828 -3.799 -3.759  7.56632 10.89542-12.70071
 3.46-1.00 -3.943 -3.932 -3.914 -3.882 -3.837  7.90558 11.39550-12.20045
 3.46-0.50 -4.006 -3.994 -3.974 -3.938 -3.888  8.23121 11.89559-11.70049
 3.46 0.00 -4.022 -4.007 -3.984 -3.942 -3.886  8.55931 12.39568-11.20032
 3.46 0.50 -3.985 -3.968 -3.940 -3.891 -3.826  8.90596 12.89581-10.70028
