
 ROSSELAND MASS ABSORPTION COEFFICENTS
 logT logP  0km/s  1km/s  2km/s  4km/s  8km/s  log Ne   log Na  log rho IPloCM-1
 3.32-2.00 -5.168 -5.156 -5.136 -5.106 -5.069  5.37894 10.53983-13.12378
 3.32-1.50 -5.202 -5.188 -5.167 -5.135 -5.097  5.79435 11.04060-12.62288
 3.32-1.00 -5.247 -5.232 -5.210 -5.177 -5.139  6.19756 11.54357-12.12004
 3.32-0.50 -5.291 -5.276 -5.253 -5.220 -5.182  6.60282 12.05192-11.61172
 3.32 0.00 -5.317 -5.301 -5.279 -5.246 -5.207  7.02694 12.57322-11.09044
 3.32 0.50 -5.320 -5.304 -5.282 -5.248 -5.211  7.46374 13.11428-10.54929
 3.32 1.00 -5.314 -5.298 -5.276 -5.243 -5.205  7.87593 13.66792 -9.99568
 3.32 1.25 -5.308 -5.293 -5.271 -5.238 -5.200  8.06441 13.94301 -9.72065
 3.32 1.50 -5.301 -5.286 -5.264 -5.231 -5.194  8.24378 14.21617 -9.44758
 3.32 1.75 -5.290 -5.274 -5.253 -5.221 -5.186  8.41410 14.48506 -9.17861
 3.32 2.00 -5.274 -5.260 -5.239 -5.208 -5.174  8.58070 14.75066 -8.91293
 3.32 2.25 -5.253 -5.239 -5.218 -5.189 -5.156  8.74427 15.01289 -8.65074
 3.32 2.50 -5.225 -5.210 -5.192 -5.165 -5.132  8.90784 15.27254 -8.39115
 3.32 2.75 -5.189 -5.175 -5.157 -5.132 -5.100  9.07294 15.52995 -8.13381
 3.32 3.00 -5.144 -5.132 -5.115 -5.090 -5.061  9.23880 15.78569 -7.87811
 3.32 3.20 -5.102 -5.090 -5.073 -5.050 -5.023  9.37220 15.98926 -7.67455
 3.32 3.40 -5.053 -5.043 -5.028 -5.006 -4.979  9.50559 16.19216 -7.47161
 3.32 3.60 -4.999 -4.989 -4.976 -4.955 -4.930  9.63787 16.39442 -7.26926
 3.32 3.80 -4.938 -4.929 -4.918 -4.899 -4.875  9.76723 16.59624 -7.06733
 3.32 4.00 -4.872 -4.865 -4.855 -4.838 -4.816  9.89421 16.79768 -6.86582
 3.32 4.20 -4.811 -4.804 -4.793 -4.777 -4.755 10.01693 16.99883 -6.66475
 3.32 4.40 -4.743 -4.736 -4.727 -4.710 -4.688 10.13649 17.19977 -6.46388
 3.32 4.60 -4.672 -4.666 -4.655 -4.640 -4.618 10.25272 17.40052 -6.26315
 3.32 4.80 -4.597 -4.590 -4.581 -4.565 -4.543 10.36617 17.60113 -6.06252
 3.32 5.00 -4.515 -4.508 -4.498 -4.483 -4.461 10.47712 17.80161 -5.86201
 3.32 5.20 -4.424 -4.418 -4.408 -4.394 -4.372 10.58583 18.00194 -5.66170
 3.32 5.40 -4.323 -4.316 -4.308 -4.293 -4.272 10.69296 18.20222 -5.46143
 3.32 5.60 -4.208 -4.203 -4.195 -4.181 -4.160 10.79862 18.40246 -5.26118
 3.32 5.80 -4.078 -4.073 -4.066 -4.053 -4.033 10.90326 18.60267 -5.06095
 3.32 6.00 -3.930 -3.925 -3.919 -3.906 -3.888 11.00690 18.80284 -4.86075
 3.32 6.25 -3.710 -3.707 -3.701 -3.691 -3.675 11.13523 19.05291 -4.61068
 3.32 6.50 -3.444 -3.441 -3.437 -3.428 -3.415 11.26269 19.30298 -4.36061
 3.32 6.75 -3.120 -3.118 -3.115 -3.108 -3.099 11.38959 19.55312 -4.11053
 3.32 7.00 -2.916 -2.914 -2.911 -2.906 -2.898 11.51587 19.80325 -3.86044
 3.32 7.25 -2.807 -2.806 -2.803 -2.799 -2.791 11.64160 20.05322 -3.61042
 3.32 7.50 -2.704 -2.702 -2.700 -2.695 -2.689 11.76671 20.30320 -3.36041
 3.32 7.75 -2.604 -2.602 -2.600 -2.596 -2.590 11.89115 20.55326 -3.11042
 3.32 8.00 -2.508 -2.505 -2.503 -2.499 -2.495 12.01494 20.80339 -2.86044
 3.34-2.00 -5.100 -5.090 -5.072 -5.043 -5.007  5.45117 10.51943-13.14424
 3.34-1.50 -5.113 -5.100 -5.080 -5.049 -5.010  5.89092 11.01953-12.64397
 3.34-1.00 -5.134 -5.119 -5.097 -5.062 -5.023  6.31302 11.52061-12.14303
 3.34-0.50 -5.161 -5.145 -5.122 -5.085 -5.045  6.72008 12.02325-11.64035
 3.34 0.00 -5.182 -5.165 -5.141 -5.104 -5.062  7.12353 12.53148-11.13224
 3.34 0.50 -5.174 -5.157 -5.132 -5.095 -5.054  7.54020 13.05231-10.61154
 3.34 1.00 -5.129 -5.111 -5.087 -5.049 -5.007  7.97350 13.59284-10.07084
 3.34 1.25 -5.097 -5.080 -5.055 -5.018 -4.977  8.18499 13.86949 -9.79420
 3.34 1.50 -5.066 -5.048 -5.024 -4.988 -4.948  8.39058 14.14613 -9.51756
 3.34 1.75 -5.035 -5.017 -4.993 -4.958 -4.919  8.58216 14.42132 -9.24240
 3.34 2.00 -5.005 -4.989 -4.965 -4.931 -4.893  8.76410 14.69478 -8.96900
 3.34 2.25 -4.975 -4.958 -4.936 -4.904 -4.866  8.93614 14.96388 -8.69980
 3.34 2.50 -4.944 -4.929 -4.906 -4.875 -4.839  9.10312 15.22968 -8.43392
 3.34 2.75 -4.910 -4.894 -4.873 -4.844 -4.809  9.26547 15.49214 -8.17160
 3.34 3.00 -4.870 -4.855 -4.835 -4.807 -4.775  9.42781 15.75197 -7.91186
 3.34 3.20 -4.832 -4.819 -4.799 -4.773 -4.742  9.55781 15.95812 -7.70563
 3.34 3.40 -4.790 -4.777 -4.760 -4.736 -4.705  9.68793 16.16318 -7.50052
 3.34 3.60 -4.741 -4.730 -4.714 -4.692 -4.663  9.81842 16.36718 -7.29653
 3.34 3.80 -4.687 -4.677 -4.663 -4.642 -4.616  9.94916 16.57046 -7.09332
 3.34 4.00 -4.627 -4.620 -4.608 -4.589 -4.564 10.07990 16.77306 -6.89076
 3.34 4.20 -4.573 -4.565 -4.554 -4.536 -4.511 10.20830 16.97506 -6.68867
 3.34 4.40 -4.514 -4.507 -4.497 -4.479 -4.455 10.33466 17.17669 -6.48697
 3.34 4.60 -4.456 -4.448 -4.439 -4.421 -4.398 10.45822 17.37802 -6.28565
 3.34 4.80 -4.397 -4.390 -4.380 -4.363 -4.339 10.57835 17.57914 -6.08457
 3.34 5.00 -4.336 -4.330 -4.319 -4.303 -4.280 10.69557 17.78003 -5.88373
 3.34 5.20 -4.274 -4.268 -4.259 -4.242 -4.219 10.80968 17.98072 -5.68305
 3.34 5.40 -4.210 -4.205 -4.195 -4.180 -4.156 10.92144 18.18127 -5.48250
 3.34 5.60 -4.146 -4.139 -4.130 -4.115 -4.092 11.03088 18.38168 -5.28205
 3.34 5.80 -4.078 -4.073 -4.064 -4.049 -4.027 11.13860 18.58201 -5.08169
 3.34 6.00 -4.010 -4.004 -3.997 -3.982 -3.961 11.24477 18.78226 -4.88141
 3.34 6.25 -3.923 -3.918 -3.911 -3.896 -3.876 11.37577 19.03244 -4.63118
 3.34 6.50 -3.835 -3.830 -3.822 -3.809 -3.789 11.50529 19.28262 -4.38101
 3.34 6.75 -3.746 -3.740 -3.734 -3.721 -3.702 11.63363 19.53280 -4.13086
 3.34 7.00 -3.655 -3.652 -3.645 -3.633 -3.615 11.76103 19.78298 -3.88074
 3.34 7.25 -3.566 -3.562 -3.556 -3.544 -3.528 11.88773 20.03303 -3.63067
 3.34 7.50 -3.476 -3.473 -3.467 -3.456 -3.440 12.01368 20.28308 -3.38059
 3.34 7.75 -3.386 -3.383 -3.377 -3.367 -3.353 12.13891 20.53313 -3.13051
 3.34 8.00 -3.298 -3.293 -3.288 -3.278 -3.266 12.26340 20.78319 -2.88041
 3.36-2.00 -5.016 -5.007 -4.991 -4.964 -4.930  5.54494 10.49941-13.16431
 3.36-1.50 -5.046 -5.036 -5.017 -4.988 -4.950  5.96431 10.99944-12.66414
 3.36-1.00 -5.055 -5.042 -5.022 -4.988 -4.948  6.39933 11.49982-12.16393
 3.36-0.50 -5.059 -5.045 -5.021 -4.985 -4.942  6.82497 12.00087-11.66294
 3.36 0.00 -5.061 -5.043 -5.017 -4.979 -4.934  7.23578 12.50352-11.16015
 3.36 0.50 -5.039 -5.021 -4.993 -4.953 -4.908  7.63988 13.01157-10.65189
 3.36 1.00 -4.975 -4.955 -4.929 -4.888 -4.842  8.05231 13.53288-10.13077
 3.36 1.25 -4.925 -4.906 -4.878 -4.839 -4.795  8.26666 13.80159 -9.86216
 3.36 1.50 -4.868 -4.849 -4.821 -4.783 -4.738  8.48101 14.07408 -9.58973
 3.36 1.75 -4.806 -4.788 -4.762 -4.723 -4.681  8.69221 14.35078 -9.31299
 3.36 2.00 -4.748 -4.729 -4.703 -4.667 -4.625  8.89922 14.62747 -9.03626
 3.36 2.25 -4.693 -4.674 -4.649 -4.614 -4.574  9.09237 14.90256 -8.76119
 3.36 2.50 -4.643 -4.625 -4.602 -4.568 -4.529  9.27577 15.17580 -8.48798
 3.36 2.75 -4.596 -4.578 -4.556 -4.524 -4.487  9.44866 15.44474 -8.21889
 3.36 3.00 -4.550 -4.535 -4.514 -4.483 -4.447  9.61574 15.71037 -7.95312
 3.36 3.20 -4.512 -4.497 -4.477 -4.449 -4.415  9.74539 15.92034 -7.74314
 3.36 3.40 -4.472 -4.458 -4.440 -4.413 -4.380  9.87440 16.12868 -7.53485
 3.36 3.60 -4.427 -4.416 -4.399 -4.374 -4.343 10.00281 16.33545 -7.32820
 3.36 3.80 -4.378 -4.368 -4.354 -4.331 -4.302 10.13108 16.54104 -7.12272
 3.36 4.00 -4.325 -4.318 -4.305 -4.285 -4.258 10.25935 16.74554 -6.91829
 3.36 4.20 -4.275 -4.268 -4.257 -4.237 -4.210 10.38766 16.94904 -6.71467
 3.36 4.40 -4.222 -4.215 -4.203 -4.185 -4.161 10.51597 17.15190 -6.51172
 3.36 4.60 -4.167 -4.160 -4.149 -4.132 -4.108 10.64342 17.35420 -6.30946
 3.36 4.80 -4.111 -4.104 -4.094 -4.076 -4.053 10.76861 17.55611 -6.10767
 3.36 5.00 -4.052 -4.046 -4.036 -4.019 -3.995 10.89193 17.75762 -5.90623
 3.36 5.20 -3.992 -3.986 -3.977 -3.961 -3.938 11.01191 17.95877 -5.70503
 3.36 5.40 -3.930 -3.924 -3.915 -3.899 -3.877 11.12927 18.15969 -5.50404
 3.36 5.60 -3.865 -3.860 -3.852 -3.836 -3.814 11.24381 18.36042 -5.30323
 3.36 5.80 -3.799 -3.794 -3.786 -3.772 -3.751 11.35591 18.56101 -5.10256
 3.36 6.00 -3.732 -3.727 -3.720 -3.706 -3.686 11.46583 18.76148 -4.90205
 3.36 6.25 -3.645 -3.641 -3.634 -3.622 -3.602 11.60057 19.01188 -4.65170
 3.36 6.50 -3.558 -3.554 -3.548 -3.536 -3.517 11.73304 19.26221 -4.40143
 3.36 6.75 -3.469 -3.466 -3.460 -3.448 -3.431 11.86366 19.51252 -4.15120
 3.36 7.00 -3.380 -3.377 -3.371 -3.360 -3.345 11.99282 19.76275 -3.90101
 3.36 7.25 -3.291 -3.288 -3.283 -3.273 -3.258 12.12078 20.01284 -3.65087
 3.36 7.50 -3.202 -3.199 -3.194 -3.184 -3.171 12.24773 20.26293 -3.40077
 3.36 7.75 -3.114 -3.110 -3.105 -3.097 -3.085 12.37387 20.51302 -3.15070
 3.36 8.00 -3.025 -3.023 -3.018 -3.010 -2.999 12.49914 20.76313 -2.90067
 3.38-2.00 -4.865 -4.857 -4.841 -4.816 -4.783  5.73576 10.47929-13.18436
 3.38-1.50 -4.940 -4.931 -4.914 -4.886 -4.849  6.09272 10.97937-12.68424
 3.38-1.00 -4.980 -4.969 -4.951 -4.919 -4.879  6.48671 11.47943-12.18422
 3.38-0.50 -4.985 -4.972 -4.951 -4.917 -4.872  6.90870 11.97978-11.68382
 3.38 0.00 -4.967 -4.952 -4.928 -4.890 -4.843  7.33304 12.48073-11.18290
 3.38 0.50 -4.924 -4.907 -4.880 -4.839 -4.790  7.74609 12.98376-10.67985
 3.38 1.00 -4.839 -4.819 -4.790 -4.748 -4.699  8.15168 13.49262-10.17108
 3.38 1.25 -4.776 -4.757 -4.728 -4.686 -4.637  8.35606 13.75177 -9.91195
 3.38 1.50 -4.702 -4.681 -4.653 -4.611 -4.563  8.56229 14.01494 -9.64878
 3.38 1.75 -4.618 -4.599 -4.570 -4.530 -4.484  8.77464 14.28425 -9.37949
 3.38 2.00 -4.530 -4.510 -4.484 -4.444 -4.399  8.98700 14.55715 -9.10657
 3.38 2.25 -4.443 -4.424 -4.398 -4.361 -4.318  9.19705 14.83387 -8.82978
 3.38 2.50 -4.361 -4.344 -4.319 -4.283 -4.243  9.40381 15.11059 -8.55300
 3.38 2.75 -4.288 -4.271 -4.249 -4.215 -4.176  9.59723 15.38546 -8.27813
 3.38 3.00 -4.224 -4.208 -4.187 -4.156 -4.118  9.78104 15.65830 -8.00533
 3.38 3.20 -4.175 -4.161 -4.142 -4.113 -4.077  9.91998 15.87335 -7.79026
 3.38 3.40 -4.130 -4.118 -4.099 -4.073 -4.039 10.05493 16.08632 -7.57729
 3.38 3.60 -4.085 -4.075 -4.058 -4.033 -4.002 10.18571 16.29711 -7.36655
 3.38 3.80 -4.039 -4.030 -4.016 -3.993 -3.963 10.31444 16.50607 -7.15767
 3.38 4.00 -3.992 -3.984 -3.972 -3.951 -3.924 10.44201 16.71341 -6.95039
 3.38 4.20 -3.947 -3.941 -3.930 -3.911 -3.884 10.56892 16.91925 -6.74450
 3.38 4.40 -3.901 -3.895 -3.885 -3.866 -3.841 10.69547 17.12407 -6.53964
 3.38 4.60 -3.853 -3.847 -3.838 -3.820 -3.796 10.82184 17.32791 -6.33572
 3.38 4.80 -3.804 -3.798 -3.789 -3.773 -3.749 10.94798 17.53108 -6.13250
 3.38 5.00 -3.752 -3.746 -3.737 -3.720 -3.698 11.07372 17.73360 -5.92996
 3.38 5.20 -3.696 -3.691 -3.682 -3.667 -3.645 11.19752 17.93556 -5.72812
 3.38 5.40 -3.637 -3.633 -3.625 -3.610 -3.589 11.31953 18.13714 -5.52661
 3.38 5.60 -3.576 -3.572 -3.565 -3.551 -3.530 11.43923 18.33838 -5.32534
 3.38 5.80 -3.513 -3.510 -3.503 -3.490 -3.469 11.55621 18.53940 -5.12424
 3.38 6.00 -3.449 -3.445 -3.438 -3.425 -3.406 11.67080 18.74021 -4.92336
 3.38 6.25 -3.365 -3.361 -3.355 -3.344 -3.326 11.81052 18.99097 -4.67272
 3.38 6.50 -3.280 -3.276 -3.271 -3.260 -3.242 11.94714 19.24155 -4.42216
 3.38 6.75 -3.193 -3.189 -3.184 -3.174 -3.158 12.08099 19.49199 -4.17163
 3.38 7.00 -3.104 -3.102 -3.097 -3.088 -3.074 12.21272 19.74233 -3.92118
 3.38 7.25 -3.017 -3.014 -3.010 -3.001 -2.988 12.34274 19.99259 -3.67100
 3.38 7.50 -2.929 -2.926 -2.922 -2.914 -2.902 12.47129 20.24279 -3.42090
 3.38 7.75 -2.841 -2.839 -2.835 -2.827 -2.818 12.59867 20.49294 -3.17084
 3.38 8.00 -2.754 -2.752 -2.748 -2.741 -2.733 12.72477 20.74304 -2.92082
 3.40-2.00 -4.670 -4.663 -4.649 -4.627 -4.596  5.97978 10.45939-13.20433
 3.40-1.50 -4.773 -4.765 -4.749 -4.723 -4.689  6.30728 10.95933-12.70443
 3.40-1.00 -4.852 -4.843 -4.826 -4.796 -4.758  6.64768 11.45939-12.20426
 3.40-0.50 -4.895 -4.884 -4.864 -4.831 -4.788  7.01787 11.95947-11.70421
 3.40 0.00 -4.889 -4.877 -4.854 -4.816 -4.769  7.42160 12.45984-11.20384
 3.40 0.50 -4.837 -4.821 -4.796 -4.755 -4.704  7.83935 12.96095-10.70268
 3.40 1.00 -4.731 -4.713 -4.685 -4.642 -4.590  8.25212 13.46434-10.19935
 3.40 1.25 -4.655 -4.636 -4.609 -4.564 -4.512  8.45559 13.71811 -9.94555
 3.40 1.50 -4.563 -4.543 -4.516 -4.472 -4.420  8.65906 13.97410 -9.68952
 3.40 1.75 -4.462 -4.441 -4.413 -4.371 -4.321  8.86354 14.23410 -9.42954
 3.40 2.00 -4.351 -4.331 -4.303 -4.262 -4.214  9.06930 14.49831 -9.16539
 3.40 2.25 -4.238 -4.220 -4.193 -4.155 -4.109  9.28012 14.76885 -8.89494
 3.40 2.50 -4.127 -4.109 -4.085 -4.049 -4.005  9.49094 15.04258 -8.62124
 3.40 2.75 -4.023 -4.007 -3.985 -3.951 -3.911  9.69937 15.31937 -8.34436
 3.40 3.00 -3.929 -3.915 -3.895 -3.864 -3.826  9.90445 15.59616 -8.06748
 3.40 3.20 -3.862 -3.849 -3.831 -3.802 -3.766 10.05912 15.81580 -7.84783
 3.40 3.40 -3.801 -3.790 -3.773 -3.747 -3.714 10.20780 16.03391 -7.62975
 3.40 3.60 -3.746 -3.737 -3.721 -3.697 -3.667 10.34967 16.24992 -7.41377
 3.40 3.80 -3.694 -3.686 -3.674 -3.652 -3.623 10.48613 16.46343 -7.20027
 3.40 4.00 -3.645 -3.638 -3.628 -3.609 -3.583 10.61847 16.67486 -6.98885
 3.40 4.20 -3.603 -3.597 -3.587 -3.569 -3.544 10.74708 16.88412 -6.77959
 3.40 4.40 -3.561 -3.555 -3.546 -3.530 -3.505 10.87423 17.09181 -6.57191
 3.40 4.60 -3.518 -3.514 -3.505 -3.490 -3.467 11.00020 17.29799 -6.36575
 3.40 4.80 -3.477 -3.471 -3.464 -3.449 -3.426 11.12553 17.50307 -6.16070
 3.40 5.00 -3.431 -3.427 -3.419 -3.405 -3.383 11.25018 17.70714 -5.95664
 3.40 5.20 -3.384 -3.379 -3.372 -3.359 -3.338 11.37457 17.91034 -5.75342
 3.40 5.40 -3.332 -3.329 -3.322 -3.309 -3.289 11.49816 18.11296 -5.55077
 3.40 5.60 -3.278 -3.274 -3.267 -3.255 -3.235 11.62066 18.31506 -5.34860
 3.40 5.80 -3.220 -3.216 -3.210 -3.199 -3.180 11.74134 18.51679 -5.14680
 3.40 6.00 -3.160 -3.156 -3.150 -3.139 -3.122 11.86028 18.71817 -4.94539
 3.40 6.25 -3.080 -3.078 -3.072 -3.062 -3.046 12.00523 18.96943 -4.69423
 3.40 6.50 -2.998 -2.996 -2.991 -2.981 -2.967 12.14675 19.22037 -4.44334
 3.40 6.75 -2.914 -2.912 -2.908 -2.899 -2.885 12.28476 19.47109 -4.19256
 3.40 7.00 -2.830 -2.827 -2.823 -2.814 -2.802 12.41996 19.72165 -3.94195
 3.40 7.25 -2.743 -2.741 -2.737 -2.730 -2.719 12.55270 19.97211 -3.69159
 3.40 7.50 -2.657 -2.655 -2.651 -2.645 -2.635 12.68341 20.22246 -3.44129
 3.40 7.75 -2.571 -2.569 -2.566 -2.560 -2.551 12.81251 20.47269 -3.19103
 3.40 8.00 -2.486 -2.484 -2.482 -2.476 -2.467 12.93987 20.72280 -2.94082
 3.42-2.00 -4.481 -4.474 -4.462 -4.441 -4.414  6.20385 10.43933-13.22432
 3.42-1.50 -4.581 -4.574 -4.560 -4.536 -4.504  6.54444 10.93937-12.72423
 3.42-1.00 -4.677 -4.668 -4.653 -4.625 -4.589  6.87186 11.43949-12.22424
 3.42-0.50 -4.750 -4.739 -4.721 -4.689 -4.649  7.20249 11.93942-11.72423
 3.42 0.00 -4.778 -4.766 -4.745 -4.709 -4.663  7.55461 12.43965-11.22410
 3.42 0.50 -4.745 -4.731 -4.708 -4.668 -4.616  7.93882 12.94002-10.72377
 3.42 1.00 -4.640 -4.624 -4.599 -4.556 -4.500  8.34537 13.44138-10.22236
 3.42 1.25 -4.557 -4.542 -4.515 -4.472 -4.415  8.55021 13.69286 -9.97089
 3.42 1.50 -4.456 -4.439 -4.412 -4.368 -4.314  8.75504 13.94527 -9.71851
 3.42 1.75 -4.338 -4.321 -4.294 -4.252 -4.199  8.95865 14.19964 -9.46408
 3.42 2.00 -4.207 -4.190 -4.163 -4.122 -4.071  9.16227 14.45652 -9.20712
 3.42 2.25 -4.073 -4.056 -4.030 -3.991 -3.944  9.36710 14.71784 -8.94587
 3.42 2.50 -3.936 -3.920 -3.897 -3.859 -3.815  9.57322 14.98354 -8.68027
 3.42 2.75 -3.806 -3.792 -3.770 -3.737 -3.696  9.78282 15.25553 -8.40816
 3.42 3.00 -3.684 -3.671 -3.652 -3.622 -3.584  9.99242 15.53007 -8.13354
 3.42 3.20 -3.594 -3.583 -3.566 -3.539 -3.504 10.15785 15.75144 -7.91214
 3.42 3.40 -3.513 -3.503 -3.488 -3.464 -3.431 10.32065 15.97282 -7.69074
 3.42 3.60 -3.438 -3.431 -3.417 -3.395 -3.366 10.47827 16.19329 -7.47027
 3.42 3.80 -3.372 -3.365 -3.354 -3.334 -3.308 10.62832 16.41156 -7.25205
 3.42 4.00 -3.312 -3.307 -3.298 -3.281 -3.257 10.77254 16.62808 -7.03560
 3.42 4.20 -3.263 -3.259 -3.250 -3.234 -3.212 10.90985 16.84171 -6.82197
 3.42 4.40 -3.217 -3.213 -3.206 -3.191 -3.169 11.04311 17.05332 -6.61034
 3.42 4.60 -3.175 -3.172 -3.164 -3.151 -3.131 11.17231 17.26290 -6.40075
 3.42 4.80 -3.136 -3.132 -3.126 -3.112 -3.093 11.29920 17.47087 -6.19279
 3.42 5.00 -3.096 -3.092 -3.086 -3.074 -3.055 11.42439 17.67733 -5.98632
 3.42 5.20 -3.055 -3.052 -3.045 -3.034 -3.016 11.54860 17.88243 -5.78119
 3.42 5.40 -3.011 -3.009 -3.003 -2.991 -2.973 11.67194 18.08661 -5.57698
 3.42 5.60 -2.964 -2.961 -2.956 -2.945 -2.928 11.79467 18.28996 -5.37360
 3.42 5.80 -2.914 -2.911 -2.906 -2.896 -2.880 11.91673 18.49274 -5.17080
 3.42 6.00 -2.860 -2.858 -2.852 -2.843 -2.828 12.03783 18.69496 -4.96859
 3.42 6.25 -2.789 -2.786 -2.782 -2.773 -2.759 12.18654 18.94707 -4.71660
 3.42 6.50 -2.713 -2.711 -2.707 -2.699 -2.685 12.33244 19.19866 -4.46509
 3.42 6.75 -2.635 -2.632 -2.628 -2.621 -2.609 12.47480 19.44982 -4.21389
 3.42 7.00 -2.553 -2.551 -2.548 -2.541 -2.530 12.61405 19.70070 -3.96297
 3.42 7.25 -2.470 -2.469 -2.465 -2.459 -2.449 12.75018 19.95141 -3.71232
 3.42 7.50 -2.387 -2.385 -2.383 -2.377 -2.368 12.88372 20.20194 -3.46180
 3.42 7.75 -2.304 -2.302 -2.299 -2.294 -2.286 13.01513 20.45231 -3.21135
 3.42 8.00 -2.221 -2.220 -2.217 -2.212 -2.205 13.14426 20.70252 -2.96098
 3.44-2.00 -4.330 -4.324 -4.312 -4.292 -4.266  6.36903 10.41929-13.24435
 3.44-1.50 -4.405 -4.398 -4.385 -4.363 -4.333  6.74788 10.91934-12.74425
 3.44-1.00 -4.491 -4.483 -4.469 -4.443 -4.408  7.09761 11.41946-12.24428
 3.44-0.50 -4.569 -4.560 -4.543 -4.514 -4.474  7.42797 11.91939-11.74425
 3.44 0.00 -4.617 -4.606 -4.585 -4.551 -4.507  7.75397 12.41946-11.24420
 3.44 0.50 -4.610 -4.597 -4.575 -4.535 -4.484  8.09307 12.91960-10.74401
 3.44 1.00 -4.530 -4.515 -4.490 -4.446 -4.389  8.45969 13.42012-10.24352
 3.44 1.25 -4.454 -4.439 -4.413 -4.369 -4.311  8.65429 13.67073 -9.99299
 3.44 1.50 -4.356 -4.340 -4.314 -4.271 -4.212  8.85266 13.92174 -9.74208
 3.44 1.75 -4.233 -4.219 -4.194 -4.150 -4.093  9.05390 14.17355 -9.49021
 3.44 2.00 -4.095 -4.080 -4.056 -4.014 -3.960  9.25624 14.42651 -9.23710
 3.44 2.25 -3.944 -3.929 -3.906 -3.867 -3.817  9.45894 14.68178 -8.98184
 3.44 2.50 -3.787 -3.773 -3.752 -3.716 -3.669  9.66257 14.93992 -8.72377
 3.44 2.75 -3.633 -3.621 -3.601 -3.569 -3.527  9.86786 15.20302 -8.46069
 3.44 3.00 -3.484 -3.474 -3.456 -3.427 -3.390 10.07445 15.47056 -8.19314
 3.44 3.20 -3.375 -3.365 -3.350 -3.324 -3.289 10.24116 15.68936 -7.97421
 3.44 3.40 -3.272 -3.264 -3.250 -3.227 -3.196 10.40787 15.90921 -7.75430
 3.44 3.60 -3.178 -3.171 -3.159 -3.139 -3.111 10.57338 16.13013 -7.53341
 3.44 3.80 -3.092 -3.086 -3.076 -3.059 -3.035 10.73524 16.35133 -7.31227
 3.44 4.00 -3.015 -3.010 -3.003 -2.987 -2.965 10.89382 16.57252 -7.09114
 3.44 4.20 -2.950 -2.947 -2.939 -2.925 -2.905 11.04438 16.79084 -6.87294
 3.44 4.40 -2.893 -2.890 -2.883 -2.871 -2.852 11.18927 17.00718 -6.65668
 3.44 4.60 -2.843 -2.840 -2.834 -2.822 -2.805 11.32787 17.22117 -6.44269
 3.44 4.80 -2.799 -2.796 -2.791 -2.780 -2.763 11.46152 17.43284 -6.23094
 3.44 5.00 -2.759 -2.756 -2.750 -2.740 -2.724 11.59129 17.64256 -6.02113
 3.44 5.20 -2.720 -2.716 -2.712 -2.702 -2.687 11.71777 17.85052 -5.81319
 3.44 5.40 -2.680 -2.678 -2.673 -2.663 -2.648 11.84248 18.05710 -5.60665
 3.44 5.60 -2.640 -2.637 -2.633 -2.623 -2.609 11.96575 18.26229 -5.40150
 3.44 5.80 -2.596 -2.593 -2.589 -2.581 -2.567 12.08806 18.46650 -5.19732
 3.44 6.00 -2.550 -2.548 -2.544 -2.535 -2.523 12.20925 18.66988 -4.99396
 3.44 6.25 -2.488 -2.486 -2.482 -2.474 -2.462 12.35958 18.92324 -4.74058
 3.44 6.50 -2.421 -2.418 -2.415 -2.408 -2.397 12.50799 19.17580 -4.48798
 3.44 6.75 -2.349 -2.347 -2.344 -2.337 -2.327 12.65383 19.42766 -4.23607
 3.44 7.00 -2.274 -2.273 -2.269 -2.264 -2.253 12.79692 19.67907 -3.98464
 3.44 7.25 -2.197 -2.195 -2.192 -2.187 -2.178 12.93659 19.93016 -3.73360
 3.44 7.50 -2.118 -2.116 -2.114 -2.108 -2.101 13.07335 20.18099 -3.48280
 3.44 7.75 -2.038 -2.037 -2.034 -2.029 -2.022 13.20747 20.43163 -3.23217
 3.44 8.00 -1.958 -1.957 -1.954 -1.951 -1.944 13.33885 20.68206 -2.98172
 3.46-2.00 -4.223 -4.217 -4.207 -4.188 -4.163  6.46864 10.39933-13.26440
 3.46-1.50 -4.270 -4.263 -4.251 -4.229 -4.201  6.88913 10.89927-12.76447
 3.46-1.00 -4.328 -4.321 -4.307 -4.283 -4.250  7.27944 11.39933-12.26432
 3.46-0.50 -4.389 -4.380 -4.364 -4.336 -4.298  7.63859 11.89933-11.76447
 3.46 0.00 -4.431 -4.422 -4.403 -4.370 -4.326  7.97382 12.39933-11.26432
 3.46 0.50 -4.433 -4.420 -4.399 -4.360 -4.309  8.29863 12.89944-10.76422
