
 ROSSELAND MASS ABSORPTION COEFFICENTS
 logT logP  0km/s  1km/s  2km/s  4km/s  8km/s  log Ne   log Na  log rho IPloCM-1
 3.32-2.00 -5.191 -5.179 -5.160 -5.130 -5.094  5.37894 10.53983-13.12378
 3.32-1.50 -5.224 -5.210 -5.190 -5.158 -5.121  5.79435 11.04060-12.62288
 3.32-1.00 -5.268 -5.254 -5.232 -5.199 -5.162  6.19756 11.54357-12.12004
 3.32-0.50 -5.311 -5.296 -5.275 -5.242 -5.204  6.60282 12.05192-11.61172
 3.32 0.00 -5.337 -5.322 -5.300 -5.267 -5.229  7.02694 12.57322-11.09044
 3.32 0.50 -5.339 -5.324 -5.302 -5.269 -5.232  7.46374 13.11428-10.54929
 3.32 1.00 -5.332 -5.316 -5.295 -5.262 -5.224  7.87593 13.66792 -9.99568
 3.32 1.25 -5.325 -5.310 -5.289 -5.256 -5.219  8.06441 13.94301 -9.72065
 3.32 1.50 -5.318 -5.302 -5.281 -5.249 -5.212  8.24378 14.21617 -9.44758
 3.32 1.75 -5.307 -5.291 -5.271 -5.239 -5.204  8.41410 14.48506 -9.17861
 3.32 2.00 -5.291 -5.276 -5.256 -5.226 -5.192  8.58070 14.75066 -8.91293
 3.32 2.25 -5.269 -5.256 -5.236 -5.208 -5.175  8.74427 15.01289 -8.65074
 3.32 2.50 -5.243 -5.229 -5.211 -5.184 -5.151  8.90784 15.27254 -8.39115
 3.32 2.75 -5.208 -5.195 -5.177 -5.152 -5.121  9.07294 15.52995 -8.13381
 3.32 3.00 -5.166 -5.153 -5.137 -5.112 -5.083  9.23880 15.78569 -7.87811
 3.32 3.20 -5.124 -5.113 -5.097 -5.075 -5.047  9.37220 15.98926 -7.67455
 3.32 3.40 -5.077 -5.067 -5.053 -5.032 -5.005  9.50559 16.19216 -7.47161
 3.32 3.60 -5.026 -5.016 -5.003 -4.983 -4.958  9.63787 16.39442 -7.26926
 3.32 3.80 -4.968 -4.959 -4.948 -4.929 -4.905  9.76723 16.59624 -7.06733
 3.32 4.00 -4.904 -4.897 -4.887 -4.870 -4.848  9.89421 16.79768 -6.86582
 3.32 4.20 -4.843 -4.837 -4.827 -4.811 -4.789 10.01693 16.99883 -6.66475
 3.32 4.40 -4.778 -4.771 -4.761 -4.745 -4.724 10.13649 17.19977 -6.46388
 3.32 4.60 -4.707 -4.701 -4.691 -4.676 -4.655 10.25272 17.40052 -6.26315
 3.32 4.80 -4.632 -4.626 -4.616 -4.601 -4.579 10.36617 17.60113 -6.06252
 3.32 5.00 -4.549 -4.543 -4.533 -4.518 -4.497 10.47712 17.80161 -5.86201
 3.32 5.20 -4.457 -4.451 -4.443 -4.428 -4.406 10.58583 18.00194 -5.66170
 3.32 5.40 -4.355 -4.349 -4.340 -4.326 -4.305 10.69296 18.20222 -5.46143
 3.32 5.60 -4.239 -4.234 -4.226 -4.212 -4.192 10.79862 18.40246 -5.26118
 3.32 5.80 -4.107 -4.103 -4.096 -4.083 -4.063 10.90326 18.60267 -5.06095
 3.32 6.00 -3.957 -3.952 -3.946 -3.934 -3.916 11.00690 18.80284 -4.86075
 3.32 6.25 -3.735 -3.732 -3.727 -3.716 -3.701 11.13523 19.05291 -4.61068
 3.32 6.50 -3.468 -3.465 -3.461 -3.453 -3.440 11.26269 19.30298 -4.36061
 3.32 6.75 -3.143 -3.141 -3.138 -3.131 -3.122 11.38959 19.55312 -4.11053
 3.32 7.00 -2.937 -2.936 -2.933 -2.928 -2.920 11.51587 19.80325 -3.86044
 3.32 7.25 -2.829 -2.828 -2.825 -2.820 -2.813 11.64160 20.05322 -3.61042
 3.32 7.50 -2.725 -2.723 -2.721 -2.716 -2.710 11.76671 20.30320 -3.36041
 3.32 7.75 -2.624 -2.623 -2.620 -2.616 -2.611 11.89115 20.55326 -3.11042
 3.32 8.00 -2.527 -2.525 -2.523 -2.519 -2.514 12.01494 20.80339 -2.86044
 3.34-2.00 -5.123 -5.113 -5.096 -5.068 -5.032  5.45117 10.51943-13.14424
 3.34-1.50 -5.136 -5.124 -5.105 -5.073 -5.035  5.89092 11.01953-12.64397
 3.34-1.00 -5.156 -5.142 -5.121 -5.087 -5.047  6.31302 11.52061-12.14303
 3.34-0.50 -5.183 -5.167 -5.144 -5.109 -5.068  6.72008 12.02325-11.64035
 3.34 0.00 -5.204 -5.187 -5.162 -5.126 -5.085  7.12353 12.53148-11.13224
 3.34 0.50 -5.196 -5.179 -5.154 -5.117 -5.076  7.54020 13.05231-10.61154
 3.34 1.00 -5.150 -5.133 -5.108 -5.071 -5.030  7.97350 13.59284-10.07084
 3.34 1.25 -5.118 -5.101 -5.077 -5.040 -4.999  8.18499 13.86949 -9.79420
 3.34 1.50 -5.086 -5.069 -5.045 -5.010 -4.969  8.39058 14.14613 -9.51756
 3.34 1.75 -5.055 -5.038 -5.015 -4.980 -4.941  8.58216 14.42132 -9.24240
 3.34 2.00 -5.025 -5.009 -4.986 -4.953 -4.915  8.76410 14.69478 -8.96900
 3.34 2.25 -4.995 -4.979 -4.957 -4.926 -4.888  8.93614 14.96388 -8.69980
 3.34 2.50 -4.965 -4.950 -4.928 -4.897 -4.862  9.10312 15.22968 -8.43392
 3.34 2.75 -4.931 -4.916 -4.896 -4.867 -4.833  9.26547 15.49214 -8.17160
 3.34 3.00 -4.893 -4.879 -4.859 -4.832 -4.800  9.42781 15.75197 -7.91186
 3.34 3.20 -4.857 -4.844 -4.826 -4.800 -4.769  9.55781 15.95812 -7.70563
 3.34 3.40 -4.817 -4.804 -4.788 -4.764 -4.734  9.68793 16.16318 -7.50052
 3.34 3.60 -4.771 -4.760 -4.744 -4.722 -4.694  9.81842 16.36718 -7.29653
 3.34 3.80 -4.719 -4.709 -4.696 -4.675 -4.649  9.94916 16.57046 -7.09332
 3.34 4.00 -4.661 -4.654 -4.642 -4.624 -4.599 10.07990 16.77306 -6.89076
 3.34 4.20 -4.608 -4.601 -4.590 -4.572 -4.548 10.20830 16.97506 -6.68867
 3.34 4.40 -4.552 -4.544 -4.534 -4.516 -4.493 10.33466 17.17669 -6.48697
 3.34 4.60 -4.493 -4.486 -4.476 -4.459 -4.437 10.45822 17.37802 -6.28565
 3.34 4.80 -4.434 -4.427 -4.418 -4.401 -4.378 10.57835 17.57914 -6.08457
 3.34 5.00 -4.373 -4.367 -4.357 -4.340 -4.317 10.69557 17.78003 -5.88373
 3.34 5.20 -4.310 -4.304 -4.294 -4.278 -4.256 10.80968 17.98072 -5.68305
 3.34 5.40 -4.245 -4.240 -4.230 -4.214 -4.192 10.92144 18.18127 -5.48250
 3.34 5.60 -4.178 -4.172 -4.164 -4.148 -4.127 11.03088 18.38168 -5.28205
 3.34 5.80 -4.110 -4.105 -4.097 -4.081 -4.059 11.13860 18.58201 -5.08169
 3.34 6.00 -4.040 -4.035 -4.027 -4.013 -3.992 11.24477 18.78226 -4.88141
 3.34 6.25 -3.952 -3.947 -3.940 -3.926 -3.905 11.37577 19.03244 -4.63118
 3.34 6.50 -3.862 -3.857 -3.850 -3.837 -3.818 11.50529 19.28262 -4.38101
 3.34 6.75 -3.772 -3.767 -3.761 -3.748 -3.730 11.63363 19.53280 -4.13086
 3.34 7.00 -3.680 -3.676 -3.670 -3.658 -3.641 11.76103 19.78298 -3.88074
 3.34 7.25 -3.590 -3.586 -3.580 -3.568 -3.552 11.88773 20.03303 -3.63067
 3.34 7.50 -3.499 -3.496 -3.490 -3.479 -3.464 12.01368 20.28308 -3.38059
 3.34 7.75 -3.409 -3.405 -3.400 -3.390 -3.376 12.13891 20.53313 -3.13051
 3.34 8.00 -3.319 -3.315 -3.310 -3.300 -3.288 12.26340 20.78319 -2.88041
 3.36-2.00 -5.036 -5.027 -5.011 -4.984 -4.950  5.54494 10.49941-13.16431
 3.36-1.50 -5.068 -5.058 -5.040 -5.011 -4.974  5.96431 10.99944-12.66414
 3.36-1.00 -5.079 -5.066 -5.046 -5.013 -4.973  6.39933 11.49982-12.16393
 3.36-0.50 -5.083 -5.069 -5.046 -5.010 -4.967  6.82497 12.00087-11.66294
 3.36 0.00 -5.083 -5.066 -5.041 -5.003 -4.958  7.23578 12.50352-11.16015
 3.36 0.50 -5.061 -5.043 -5.016 -4.977 -4.932  7.63988 13.01157-10.65189
 3.36 1.00 -4.997 -4.978 -4.952 -4.912 -4.867  8.05231 13.53288-10.13077
 3.36 1.25 -4.948 -4.929 -4.903 -4.863 -4.819  8.26666 13.80159 -9.86216
 3.36 1.50 -4.891 -4.873 -4.845 -4.807 -4.763  8.48101 14.07408 -9.58973
 3.36 1.75 -4.831 -4.812 -4.786 -4.748 -4.706  8.69221 14.35078 -9.31299
 3.36 2.00 -4.772 -4.753 -4.728 -4.692 -4.651  8.89922 14.62747 -9.03626
 3.36 2.25 -4.717 -4.698 -4.674 -4.639 -4.600  9.09237 14.90256 -8.76119
 3.36 2.50 -4.667 -4.649 -4.626 -4.593 -4.555  9.27577 15.17580 -8.48798
 3.36 2.75 -4.620 -4.603 -4.582 -4.550 -4.514  9.44866 15.44474 -8.21889
 3.36 3.00 -4.576 -4.560 -4.540 -4.510 -4.474  9.61574 15.71037 -7.95312
 3.36 3.20 -4.539 -4.524 -4.505 -4.477 -4.443  9.74539 15.92034 -7.74314
 3.36 3.40 -4.500 -4.487 -4.469 -4.443 -4.410  9.87440 16.12868 -7.53485
 3.36 3.60 -4.457 -4.446 -4.430 -4.405 -4.375 10.00281 16.33545 -7.32820
 3.36 3.80 -4.411 -4.401 -4.386 -4.364 -4.336 10.13108 16.54104 -7.12272
 3.36 4.00 -4.359 -4.352 -4.340 -4.319 -4.293 10.25935 16.74554 -6.91829
 3.36 4.20 -4.311 -4.304 -4.293 -4.274 -4.248 10.38766 16.94904 -6.71467
 3.36 4.40 -4.259 -4.252 -4.241 -4.223 -4.199 10.51597 17.15190 -6.51172
 3.36 4.60 -4.205 -4.198 -4.188 -4.171 -4.147 10.64342 17.35420 -6.30946
 3.36 4.80 -4.148 -4.142 -4.132 -4.115 -4.092 10.76861 17.55611 -6.10767
 3.36 5.00 -4.089 -4.083 -4.073 -4.057 -4.034 10.89193 17.75762 -5.90623
 3.36 5.20 -4.028 -4.022 -4.013 -3.997 -3.975 11.01191 17.95877 -5.70503
 3.36 5.40 -3.964 -3.959 -3.950 -3.934 -3.912 11.12927 18.15969 -5.50404
 3.36 5.60 -3.898 -3.893 -3.885 -3.870 -3.849 11.24381 18.36042 -5.30323
 3.36 5.80 -3.831 -3.826 -3.819 -3.804 -3.783 11.35591 18.56101 -5.10256
 3.36 6.00 -3.762 -3.757 -3.750 -3.736 -3.717 11.46583 18.76148 -4.90205
 3.36 6.25 -3.674 -3.670 -3.663 -3.651 -3.632 11.60057 19.01188 -4.65170
 3.36 6.50 -3.585 -3.581 -3.575 -3.563 -3.545 11.73304 19.26221 -4.40143
 3.36 6.75 -3.495 -3.492 -3.486 -3.475 -3.458 11.86366 19.51252 -4.15120
 3.36 7.00 -3.405 -3.401 -3.396 -3.385 -3.370 11.99282 19.76275 -3.90101
 3.36 7.25 -3.315 -3.312 -3.307 -3.297 -3.282 12.12078 20.01284 -3.65087
 3.36 7.50 -3.225 -3.222 -3.217 -3.208 -3.195 12.24773 20.26293 -3.40077
 3.36 7.75 -3.136 -3.133 -3.128 -3.120 -3.108 12.37387 20.51302 -3.15070
 3.36 8.00 -3.047 -3.044 -3.040 -3.032 -3.021 12.49914 20.76313 -2.90067
 3.38-2.00 -4.881 -4.873 -4.858 -4.833 -4.800  5.73576 10.47929-13.18436
 3.38-1.50 -4.959 -4.950 -4.933 -4.905 -4.869  6.09272 10.97937-12.68424
 3.38-1.00 -5.002 -4.991 -4.972 -4.941 -4.902  6.48671 11.47943-12.18422
 3.38-0.50 -5.009 -4.997 -4.975 -4.941 -4.898  6.90870 11.97978-11.68382
 3.38 0.00 -4.992 -4.976 -4.953 -4.915 -4.869  7.33304 12.48073-11.18290
 3.38 0.50 -4.949 -4.931 -4.905 -4.865 -4.816  7.74609 12.98376-10.67985
 3.38 1.00 -4.863 -4.843 -4.815 -4.774 -4.725  8.15168 13.49262-10.17108
 3.38 1.25 -4.801 -4.781 -4.753 -4.712 -4.664  8.35606 13.75177 -9.91195
 3.38 1.50 -4.727 -4.707 -4.679 -4.638 -4.590  8.56229 14.01494 -9.64878
 3.38 1.75 -4.644 -4.625 -4.597 -4.557 -4.511  8.77464 14.28425 -9.37949
 3.38 2.00 -4.557 -4.537 -4.511 -4.472 -4.428  8.98700 14.55715 -9.10657
 3.38 2.25 -4.470 -4.451 -4.426 -4.389 -4.347  9.19705 14.83387 -8.82978
 3.38 2.50 -4.389 -4.371 -4.347 -4.312 -4.272  9.40381 15.11059 -8.55300
 3.38 2.75 -4.315 -4.299 -4.277 -4.244 -4.205  9.59723 15.38546 -8.27813
 3.38 3.00 -4.251 -4.236 -4.215 -4.185 -4.148  9.78104 15.65830 -8.00533
 3.38 3.20 -4.203 -4.189 -4.171 -4.142 -4.107  9.91998 15.87335 -7.79026
 3.38 3.40 -4.159 -4.147 -4.129 -4.102 -4.069 10.05493 16.08632 -7.57729
 3.38 3.60 -4.115 -4.104 -4.088 -4.064 -4.033 10.18571 16.29711 -7.36655
 3.38 3.80 -4.070 -4.061 -4.047 -4.025 -3.995 10.31444 16.50607 -7.15767
 3.38 4.00 -4.024 -4.016 -4.005 -3.985 -3.958 10.44201 16.71341 -6.95039
 3.38 4.20 -3.982 -3.976 -3.964 -3.945 -3.919 10.56892 16.91925 -6.74450
 3.38 4.40 -3.937 -3.931 -3.921 -3.903 -3.878 10.69547 17.12407 -6.53964
 3.38 4.60 -3.890 -3.884 -3.875 -3.858 -3.834 10.82184 17.32791 -6.33572
 3.38 4.80 -3.841 -3.835 -3.826 -3.810 -3.786 10.94798 17.53108 -6.13250
 3.38 5.00 -3.788 -3.783 -3.774 -3.758 -3.735 11.07372 17.73360 -5.92996
 3.38 5.20 -3.731 -3.726 -3.718 -3.703 -3.681 11.19752 17.93556 -5.72812
 3.38 5.40 -3.672 -3.668 -3.660 -3.645 -3.624 11.31953 18.13714 -5.52661
 3.38 5.60 -3.609 -3.605 -3.598 -3.584 -3.564 11.43923 18.33838 -5.32534
 3.38 5.80 -3.545 -3.541 -3.535 -3.522 -3.501 11.55621 18.53940 -5.12424
 3.38 6.00 -3.478 -3.475 -3.468 -3.456 -3.437 11.67080 18.74021 -4.92336
 3.38 6.25 -3.394 -3.390 -3.384 -3.373 -3.355 11.81052 18.99097 -4.67272
 3.38 6.50 -3.306 -3.303 -3.298 -3.287 -3.270 11.94714 19.24155 -4.42216
 3.38 6.75 -3.218 -3.215 -3.210 -3.200 -3.185 12.08099 19.49199 -4.17163
 3.38 7.00 -3.129 -3.126 -3.122 -3.112 -3.099 12.21272 19.74233 -3.92118
 3.38 7.25 -3.041 -3.038 -3.034 -3.025 -3.012 12.34274 19.99259 -3.67100
 3.38 7.50 -2.951 -2.949 -2.945 -2.937 -2.926 12.47129 20.24279 -3.42090
 3.38 7.75 -2.863 -2.861 -2.857 -2.850 -2.840 12.59867 20.49294 -3.17084
 3.38 8.00 -2.776 -2.774 -2.770 -2.763 -2.754 12.72477 20.74304 -2.92082
 3.40-2.00 -4.687 -4.680 -4.666 -4.643 -4.613  5.97978 10.45939-13.20433
 3.40-1.50 -4.790 -4.781 -4.766 -4.740 -4.706  6.30728 10.95933-12.70443
 3.40-1.00 -4.871 -4.861 -4.844 -4.815 -4.777  6.64768 11.45939-12.20426
 3.40-0.50 -4.916 -4.905 -4.886 -4.852 -4.810  7.01787 11.95947-11.70421
 3.40 0.00 -4.913 -4.901 -4.878 -4.841 -4.795  7.42160 12.45984-11.20384
 3.40 0.50 -4.861 -4.846 -4.822 -4.782 -4.731  7.83935 12.96095-10.70268
 3.40 1.00 -4.756 -4.739 -4.712 -4.669 -4.618  8.25212 13.46434-10.19935
 3.40 1.25 -4.681 -4.663 -4.635 -4.592 -4.541  8.45559 13.71811 -9.94555
 3.40 1.50 -4.590 -4.570 -4.543 -4.500 -4.450  8.65906 13.97410 -9.68952
 3.40 1.75 -4.489 -4.469 -4.442 -4.400 -4.351  8.86354 14.23410 -9.42954
 3.40 2.00 -4.378 -4.359 -4.332 -4.292 -4.244  9.06930 14.49831 -9.16539
 3.40 2.25 -4.267 -4.249 -4.223 -4.184 -4.139  9.28012 14.76885 -8.89494
 3.40 2.50 -4.156 -4.139 -4.115 -4.079 -4.036  9.49094 15.04258 -8.62124
 3.40 2.75 -4.052 -4.037 -4.015 -3.982 -3.942  9.69937 15.31937 -8.34436
 3.40 3.00 -3.958 -3.945 -3.924 -3.894 -3.857  9.90445 15.59616 -8.06748
 3.40 3.20 -3.891 -3.879 -3.860 -3.832 -3.797 10.05912 15.81580 -7.84783
 3.40 3.40 -3.831 -3.820 -3.803 -3.777 -3.745 10.20780 16.03391 -7.62975
 3.40 3.60 -3.776 -3.766 -3.751 -3.728 -3.698 10.34967 16.24992 -7.41377
 3.40 3.80 -3.724 -3.716 -3.704 -3.683 -3.655 10.48613 16.46343 -7.20027
 3.40 4.00 -3.677 -3.670 -3.660 -3.642 -3.615 10.61847 16.67486 -6.98885
 3.40 4.20 -3.635 -3.629 -3.619 -3.602 -3.578 10.74708 16.88412 -6.77959
 3.40 4.40 -3.594 -3.588 -3.580 -3.564 -3.540 10.87423 17.09181 -6.57191
 3.40 4.60 -3.553 -3.548 -3.540 -3.524 -3.501 11.00020 17.29799 -6.36575
 3.40 4.80 -3.511 -3.506 -3.498 -3.483 -3.461 11.12553 17.50307 -6.16070
 3.40 5.00 -3.466 -3.462 -3.454 -3.439 -3.418 11.25018 17.70714 -5.95664
 3.40 5.20 -3.418 -3.413 -3.406 -3.393 -3.372 11.37457 17.91034 -5.75342
 3.40 5.40 -3.365 -3.361 -3.355 -3.342 -3.322 11.49816 18.11296 -5.55077
 3.40 5.60 -3.310 -3.307 -3.300 -3.287 -3.268 11.62066 18.31506 -5.34860
 3.40 5.80 -3.251 -3.247 -3.241 -3.230 -3.212 11.74134 18.51679 -5.14680
 3.40 6.00 -3.189 -3.186 -3.180 -3.169 -3.152 11.86028 18.71817 -4.94539
 3.40 6.25 -3.109 -3.106 -3.101 -3.090 -3.075 12.00523 18.96943 -4.69423
 3.40 6.50 -3.026 -3.023 -3.018 -3.008 -2.994 12.14675 19.22037 -4.44334
 3.40 6.75 -2.940 -2.938 -2.934 -2.925 -2.912 12.28476 19.47109 -4.19256
 3.40 7.00 -2.854 -2.851 -2.847 -2.839 -2.827 12.41996 19.72165 -3.94195
 3.40 7.25 -2.767 -2.765 -2.761 -2.754 -2.743 12.55270 19.97211 -3.69159
 3.40 7.50 -2.680 -2.678 -2.674 -2.668 -2.658 12.68341 20.22246 -3.44129
 3.40 7.75 -2.593 -2.591 -2.588 -2.582 -2.573 12.81251 20.47269 -3.19103
 3.40 8.00 -2.508 -2.506 -2.503 -2.498 -2.489 12.93987 20.72280 -2.94082
 3.42-2.00 -4.501 -4.494 -4.482 -4.461 -4.433  6.20385 10.43933-13.22432
 3.42-1.50 -4.598 -4.591 -4.577 -4.553 -4.522  6.54444 10.93937-12.72423
 3.42-1.00 -4.694 -4.685 -4.670 -4.643 -4.607  6.87186 11.43949-12.22424
 3.42-0.50 -4.768 -4.758 -4.740 -4.709 -4.668  7.20249 11.93942-11.72423
 3.42 0.00 -4.799 -4.788 -4.767 -4.731 -4.685  7.55461 12.43965-11.22410
 3.42 0.50 -4.770 -4.756 -4.732 -4.693 -4.642  7.93882 12.94002-10.72377
 3.42 1.00 -4.666 -4.651 -4.626 -4.583 -4.528  8.34537 13.44138-10.22236
 3.42 1.25 -4.584 -4.569 -4.542 -4.500 -4.445  8.55021 13.69286 -9.97089
 3.42 1.50 -4.483 -4.467 -4.441 -4.398 -4.344  8.75504 13.94527 -9.71851
 3.42 1.75 -4.366 -4.350 -4.324 -4.281 -4.229  8.95865 14.19964 -9.46408
 3.42 2.00 -4.237 -4.220 -4.193 -4.153 -4.103  9.16227 14.45652 -9.20712
 3.42 2.25 -4.102 -4.085 -4.061 -4.022 -3.975  9.36710 14.71784 -8.94587
 3.42 2.50 -3.966 -3.950 -3.927 -3.891 -3.847  9.57322 14.98354 -8.68027
 3.42 2.75 -3.836 -3.822 -3.801 -3.769 -3.728  9.78282 15.25553 -8.40816
 3.42 3.00 -3.714 -3.702 -3.683 -3.654 -3.617  9.99242 15.53007 -8.13354
 3.42 3.20 -3.624 -3.614 -3.597 -3.571 -3.536 10.15785 15.75144 -7.91214
 3.42 3.40 -3.543 -3.533 -3.519 -3.495 -3.463 10.32065 15.97282 -7.69074
 3.42 3.60 -3.469 -3.461 -3.448 -3.427 -3.398 10.47827 16.19329 -7.47027
 3.42 3.80 -3.402 -3.396 -3.385 -3.366 -3.340 10.62832 16.41156 -7.25205
 3.42 4.00 -3.343 -3.338 -3.329 -3.312 -3.289 10.77254 16.62808 -7.03560
 3.42 4.20 -3.294 -3.290 -3.281 -3.266 -3.244 10.90985 16.84171 -6.82197
 3.42 4.40 -3.249 -3.245 -3.238 -3.223 -3.202 11.04311 17.05332 -6.61034
 3.42 4.60 -3.208 -3.204 -3.196 -3.183 -3.163 11.17231 17.26290 -6.40075
 3.42 4.80 -3.168 -3.164 -3.158 -3.145 -3.126 11.29920 17.47087 -6.19279
 3.42 5.00 -3.128 -3.124 -3.118 -3.106 -3.088 11.42439 17.67733 -5.98632
 3.42 5.20 -3.087 -3.084 -3.078 -3.066 -3.048 11.54860 17.88243 -5.78119
 3.42 5.40 -3.043 -3.040 -3.034 -3.023 -3.006 11.67194 18.08661 -5.57698
 3.42 5.60 -2.995 -2.992 -2.987 -2.976 -2.960 11.79467 18.28996 -5.37360
 3.42 5.80 -2.944 -2.941 -2.936 -2.926 -2.910 11.91673 18.49274 -5.17080
 3.42 6.00 -2.890 -2.887 -2.882 -2.873 -2.858 12.03783 18.69496 -4.96859
 3.42 6.25 -2.817 -2.814 -2.810 -2.801 -2.787 12.18654 18.94707 -4.71660
 3.42 6.50 -2.740 -2.738 -2.734 -2.726 -2.712 12.33244 19.19866 -4.46509
 3.42 6.75 -2.660 -2.658 -2.654 -2.647 -2.635 12.47480 19.44982 -4.21389
 3.42 7.00 -2.577 -2.575 -2.572 -2.565 -2.554 12.61405 19.70070 -3.96297
 3.42 7.25 -2.494 -2.493 -2.489 -2.483 -2.473 12.75018 19.95141 -3.71232
 3.42 7.50 -2.410 -2.408 -2.405 -2.400 -2.391 12.88372 20.20194 -3.46180
 3.42 7.75 -2.326 -2.324 -2.321 -2.316 -2.308 13.01513 20.45231 -3.21135
 3.42 8.00 -2.243 -2.241 -2.239 -2.234 -2.227 13.14426 20.70252 -2.96098
 3.44-2.00 -4.351 -4.345 -4.333 -4.314 -4.288  6.36903 10.41929-13.24435
 3.44-1.50 -4.425 -4.418 -4.405 -4.383 -4.354  6.74788 10.91934-12.74425
 3.44-1.00 -4.510 -4.502 -4.487 -4.462 -4.428  7.09761 11.41946-12.24428
 3.44-0.50 -4.587 -4.578 -4.561 -4.532 -4.494  7.42797 11.91939-11.74425
 3.44 0.00 -4.636 -4.625 -4.605 -4.572 -4.527  7.75397 12.41946-11.24420
 3.44 0.50 -4.632 -4.619 -4.597 -4.558 -4.507  8.09307 12.91960-10.74401
 3.44 1.00 -4.554 -4.539 -4.515 -4.472 -4.416  8.45969 13.42012-10.24352
 3.44 1.25 -4.480 -4.465 -4.440 -4.396 -4.338  8.65429 13.67073 -9.99299
 3.44 1.50 -4.383 -4.367 -4.342 -4.299 -4.241  8.85266 13.92174 -9.74208
 3.44 1.75 -4.262 -4.247 -4.223 -4.180 -4.123  9.05390 14.17355 -9.49021
 3.44 2.00 -4.124 -4.110 -4.085 -4.045 -3.991  9.25624 14.42651 -9.23710
 3.44 2.25 -3.973 -3.959 -3.937 -3.899 -3.849  9.45894 14.68178 -8.98184
 3.44 2.50 -3.817 -3.804 -3.783 -3.748 -3.702  9.66257 14.93992 -8.72377
 3.44 2.75 -3.663 -3.651 -3.632 -3.601 -3.559  9.86786 15.20302 -8.46069
 3.44 3.00 -3.515 -3.504 -3.487 -3.459 -3.422 10.07445 15.47056 -8.19314
 3.44 3.20 -3.405 -3.396 -3.381 -3.356 -3.322 10.24116 15.68936 -7.97421
 3.44 3.40 -3.303 -3.295 -3.282 -3.259 -3.229 10.40787 15.90921 -7.75430
 3.44 3.60 -3.209 -3.202 -3.190 -3.171 -3.143 10.57338 16.13013 -7.53341
 3.44 3.80 -3.123 -3.117 -3.108 -3.091 -3.067 10.73524 16.35133 -7.31227
 3.44 4.00 -3.046 -3.042 -3.034 -3.019 -2.997 10.89382 16.57252 -7.09114
 3.44 4.20 -2.981 -2.978 -2.970 -2.957 -2.937 11.04438 16.79084 -6.87294
 3.44 4.40 -2.924 -2.921 -2.914 -2.902 -2.884 11.18927 17.00718 -6.65668
 3.44 4.60 -2.874 -2.872 -2.865 -2.854 -2.837 11.32787 17.22117 -6.44269
 3.44 4.80 -2.830 -2.827 -2.822 -2.811 -2.795 11.46152 17.43284 -6.23094
 3.44 5.00 -2.789 -2.786 -2.781 -2.771 -2.755 11.59129 17.64256 -6.02113
 3.44 5.20 -2.749 -2.746 -2.741 -2.732 -2.717 11.71777 17.85052 -5.81319
 3.44 5.40 -2.710 -2.708 -2.703 -2.693 -2.678 11.84248 18.05710 -5.60665
 3.44 5.60 -2.669 -2.666 -2.662 -2.653 -2.639 11.96575 18.26229 -5.40150
 3.44 5.80 -2.625 -2.622 -2.618 -2.610 -2.596 12.08806 18.46650 -5.19732
 3.44 6.00 -2.578 -2.576 -2.572 -2.563 -2.551 12.20925 18.66988 -4.99396
 3.44 6.25 -2.515 -2.513 -2.509 -2.501 -2.489 12.35958 18.92324 -4.74058
 3.44 6.50 -2.447 -2.445 -2.442 -2.435 -2.424 12.50799 19.17580 -4.48798
 3.44 6.75 -2.375 -2.373 -2.370 -2.363 -2.353 12.65383 19.42766 -4.23607
 3.44 7.00 -2.298 -2.297 -2.294 -2.288 -2.278 12.79692 19.67907 -3.98464
 3.44 7.25 -2.221 -2.219 -2.216 -2.211 -2.202 12.93659 19.93016 -3.73360
 3.44 7.50 -2.141 -2.139 -2.137 -2.131 -2.124 13.07335 20.18099 -3.48280
 3.44 7.75 -2.060 -2.059 -2.056 -2.051 -2.044 13.20747 20.43163 -3.23217
 3.44 8.00 -1.980 -1.979 -1.976 -1.972 -1.965 13.33885 20.68206 -2.98172
 3.46-2.00 -4.247 -4.242 -4.231 -4.213 -4.188  6.46864 10.39933-13.26440
 3.46-1.50 -4.293 -4.286 -4.274 -4.253 -4.225  6.88913 10.89927-12.76447
 3.46-1.00 -4.350 -4.342 -4.329 -4.305 -4.271  7.27944 11.39933-12.26432
 3.46-0.50 -4.409 -4.400 -4.384 -4.356 -4.319  7.63859 11.89933-11.76447
 3.46 0.00 -4.451 -4.441 -4.423 -4.390 -4.347  7.97382 12.39933-11.26432
 3.46 0.50 -4.454 -4.442 -4.421 -4.382 -4.332  8.29863 12.89944-10.76422
